%OpenBCI Raw EEG Data
%
%Sample Rate = 200.0 Hz
%First Column = SampleIndex
%Last Column = Timestamp 
%Other Columns = EEG data in microvolts followed by Accel Data (in G) interleaved with Aux Data
0, -950.39, -1046.18, -398.29, -250.39, 0.000, 0.000, 0.000, 23:35:23.778
1, -950.75, -1044.89, -413.75, -270.17, 0.000, 0.000, 0.000, 23:35:23.779
2, -952.86, -1048.33, -424.18, -274.92, 0.000, 0.000, 0.000, 23:35:23.780
3, -955.39, -1053.58, -407.74, -255.58, 0.000, 0.000, 0.000, 23:35:23.809
4, -953.98, -1051.21, -412.88, -268.56, 0.000, 0.000, 0.000, 23:35:23.810
5, -944.86, -1044.61, -411.43, -269.22, 0.000, 0.000, 0.000, 23:35:23.811
6, -952.05, -1051.96, -412.73, -263.12, 0.000, 0.000, 0.000, 23:35:23.811
7, -954.23, -1053.20, -407.67, -267.10, 0.000, 0.000, 0.000, 23:35:23.837
8, -950.22, -1047.17, -426.71, -277.00, 0.000, 0.000, 0.000, 23:35:23.837
9, -957.49, -1054.90, -428.44, -277.06, 0.000, 0.000, 0.000, 23:35:23.843
10, -950.77, -1051.03, -410.30, -264.48, 0.000, 0.000, 0.000, 23:35:23.843
11, -940.32, -1045.45, -407.94, -265.03, 0.000, 0.000, 0.000, 23:35:23.896
12, -945.34, -1047.63, -422.24, -276.77, 0.000, 0.000, 0.000, 23:35:23.897
13, -946.71, -1046.13, -404.64, -258.17, 0.000, 0.000, 0.000, 23:35:23.897
14, -936.15, -1034.15, -394.41, -250.53, 0.000, 0.000, 0.000, 23:35:23.898
15, -946.32, -1048.86, -419.79, -268.95, 0.000, 0.000, 0.000, 23:35:23.926
16, -942.22, -1044.24, -403.60, -250.50, 0.000, 0.000, 0.000, 23:35:23.926
17, -942.07, -1046.50, -391.25, -249.34, 0.000, 0.000, 0.000, 23:35:23.957
18, -940.11, -1038.27, -410.80, -266.60, 0.000, 0.000, 0.000, 23:35:23.957
19, -948.56, -1053.60, -419.30, -269.23, 0.000, 0.000, 0.000, 23:35:23.988
20, -951.83, -1053.63, -404.19, -258.81, 0.000, 0.000, 0.000, 23:35:23.988
21, -940.70, -1046.98, -405.58, -263.96, 0.000, 0.000, 0.000, 23:35:23.989
22, -938.94, -1049.89, -413.20, -265.24, 0.000, 0.000, 0.000, 23:35:23.990
27, -931.44, -1042.42, -398.57, -255.89, 0.000, 0.000, 0.000, 23:35:24.016
28, -938.38, -1047.54, -413.44, -272.03, 0.000, 0.000, 0.000, 23:35:24.016
29, -938.64, -1051.79, -426.16, -269.68, 0.000, 0.000, 0.000, 23:35:24.017
30, -937.45, -1052.89, -410.97, -263.70, 0.000, 0.000, 0.000, 23:35:24.018
33, -946.06, -1054.96, -400.39, -255.15, 0.000, 0.000, 0.000, 23:35:24.046
34, -940.07, -1050.15, -391.35, -254.12, 0.000, 0.000, 0.000, 23:35:24.047
39, -943.58, -1051.96, -387.05, -242.63, 0.000, 0.000, 0.000, 23:35:24.049
40, -950.00, -1056.68, -379.90, -239.15, 0.000, 0.000, 0.000, 23:35:24.050
45, -943.80, -1054.61, -391.61, -252.83, 0.000, 0.000, 0.000, 23:35:24.077
46, -954.28, -1058.49, -388.21, -240.46, 0.000, 0.000, 0.000, 23:35:24.077
47, -952.80, -1058.30, -377.88, -233.67, 0.000, 0.000, 0.000, 23:35:24.078
48, -943.91, -1045.89, -386.40, -247.96, 0.000, 0.000, 0.000, 23:35:24.078
51, -949.84, -1047.29, -397.57, -268.22, 0.000, 0.000, 0.000, 23:35:24.106
52, -943.14, -1041.05, -402.42, -268.27, 0.000, 0.000, 0.000, 23:35:24.106
53, -950.04, -1049.82, -399.18, -261.98, 0.000, 0.000, 0.000, 23:35:24.109
54, -954.63, -1051.33, -399.46, -267.20, 0.000, 0.000, 0.000, 23:35:24.109
57, -952.63, -1053.16, -393.80, -271.11, 0.000, 0.000, 0.000, 23:35:24.137
58, -955.45, -1054.72, -410.07, -283.38, 0.000, 0.000, 0.000, 23:35:24.138
59, -939.05, -1044.43, -387.65, -259.64, 0.000, 0.000, 0.000, 23:35:24.139
60, -949.36, -1051.90, -391.52, -265.97, 0.000, 0.000, 0.000, 23:35:24.139
63, -954.63, -1056.52, -380.36, -256.42, 0.000, 0.000, 0.000, 23:35:24.169
64, -956.90, -1055.66, -377.36, -253.58, 0.000, 0.000, 0.000, 23:35:24.169
65, -957.39, -1055.41, -388.91, -262.72, 0.000, 0.000, 0.000, 23:35:24.170
66, -968.01, -1066.38, -384.05, -257.11, 0.000, 0.000, 0.000, 23:35:24.170
69, -965.51, -1060.40, -386.31, -248.45, 0.000, 0.000, 0.000, 23:35:24.198
70, -977.87, -1063.96, -372.68, -243.66, 0.000, 0.000, 0.000, 23:35:24.198
71, -986.54, -1073.63, -387.98, -258.43, 0.000, 0.000, 0.000, 23:35:24.199
72, -974.81, -1060.63, -385.50, -247.13, 0.000, 0.000, 0.000, 23:35:24.199
75, -968.53, -1060.68, -394.92, -254.72, 0.000, 0.000, 0.000, 23:35:24.227
76, -964.91, -1057.86, -389.97, -244.80, 0.000, 0.000, 0.000, 23:35:24.227
77, -977.08, -1060.37, -385.98, -247.10, 0.000, 0.000, 0.000, 23:35:24.228
78, -972.82, -1056.47, -400.84, -260.44, 0.000, 0.000, 0.000, 23:35:24.228
81, -973.43, -1055.13, -409.58, -274.86, 0.000, 0.000, 0.000, 23:35:24.258
82, -972.93, -1057.27, -418.57, -269.66, 0.000, 0.000, 0.000, 23:35:24.258
83, -972.36, -1049.21, -403.96, -253.09, 0.000, 0.000, 0.000, 23:35:24.259
84, -975.65, -1058.03, -405.87, -267.53, 0.000, 0.000, 0.000, 23:35:24.259
87, -977.45, -1056.16, -396.32, -265.87, 0.000, 0.000, 0.000, 23:35:24.286
88, -974.35, -1058.37, -419.23, -286.04, 0.000, 0.000, 0.000, 23:35:24.286
89, -977.48, -1063.32, -421.91, -291.87, 0.000, 0.000, 0.000, 23:35:24.287
90, -980.72, -1068.35, -410.08, -273.78, 0.000, 0.000, 0.000, 23:35:24.288
93, -992.93, -1076.19, -406.89, -270.21, 0.000, 0.000, 0.000, 23:35:24.318
94, -991.99, -1072.03, -405.71, -271.93, 0.000, 0.000, 0.000, 23:35:24.318
95, -985.83, -1072.58, -422.45, -285.82, 0.000, 0.000, 0.000, 23:35:24.319
96, -997.77, -1079.90, -418.26, -282.19, 0.000, 0.000, 0.000, 23:35:24.319
99, -997.90, -1081.98, -426.95, -285.04, 0.000, 0.000, 0.000, 23:35:24.347
100, -1013.86, -1093.65, -422.33, -284.69, 0.000, 0.000, 0.000, 23:35:24.348
101, -1008.64, -1091.35, -427.79, -290.36, 0.000, 0.000, 0.000, 23:35:24.348
102, -1014.83, -1103.66, -440.78, -302.63, 0.000, 0.000, 0.000, 23:35:24.348
105, -997.34, -1086.82, -439.91, -295.61, 0.000, 0.000, 0.000, 23:35:24.377
106, -991.31, -1081.11, -427.03, -278.36, 0.000, 0.000, 0.000, 23:35:24.378
107, -997.16, -1084.46, -428.30, -280.77, 0.000, 0.000, 0.000, 23:35:24.378
108, -994.37, -1092.26, -444.25, -290.94, 0.000, 0.000, 0.000, 23:35:24.378
111, -1002.68, -1100.94, -467.03, -320.13, 0.000, 0.000, 0.000, 23:35:24.407
112, -993.31, -1096.54, -484.02, -330.55, 0.000, 0.000, 0.000, 23:35:24.408
113, -1003.52, -1101.04, -462.50, -315.22, 0.000, 0.000, 0.000, 23:35:24.408
114, -1011.58, -1101.44, -464.52, -320.60, 0.000, 0.000, 0.000, 23:35:24.409
117, -996.90, -1087.09, -435.54, -302.35, 0.000, 0.000, 0.000, 23:35:24.436
118, -1000.89, -1091.89, -448.67, -319.89, 0.000, 0.000, 0.000, 23:35:24.437
119, -1010.75, -1099.47, -456.79, -317.41, 0.000, 0.000, 0.000, 23:35:24.438
120, -1019.17, -1112.65, -450.90, -309.19, 0.000, 0.000, 0.000, 23:35:24.438
123, -1005.34, -1102.75, -427.27, -288.17, 0.000, 0.000, 0.000, 23:35:24.467
124, -999.43, -1106.08, -432.94, -292.06, 0.000, 0.000, 0.000, 23:35:24.467
125, -981.97, -1098.91, -435.79, -296.42, 0.000, 0.000, 0.000, 23:35:24.468
126, -989.36, -1092.91, -432.70, -290.66, 0.000, 0.000, 0.000, 23:35:24.468
129, -988.66, -1097.54, -438.86, -289.36, 0.000, 0.000, 0.000, 23:35:24.497
130, -983.46, -1092.97, -413.22, -267.08, 0.000, 0.000, 0.000, 23:35:24.497
131, -977.39, -1091.81, -414.87, -275.13, 0.000, 0.000, 0.000, 23:35:24.498
132, -985.12, -1101.00, -435.97, -285.21, 0.000, 0.000, 0.000, 23:35:24.498
135, -988.62, -1106.85, -456.64, -303.88, 0.000, 0.000, 0.000, 23:35:24.527
136, -990.32, -1107.58, -455.83, -296.66, 0.000, 0.000, 0.000, 23:35:24.527
137, -988.19, -1103.65, -443.82, -294.81, 0.000, 0.000, 0.000, 23:35:24.528
138, -982.89, -1096.12, -457.52, -304.53, 0.000, 0.000, 0.000, 23:35:24.529
141, -984.82, -1099.30, -466.09, -321.63, 0.000, 0.000, 0.000, 23:35:24.557
142, -964.19, -1088.61, -457.32, -303.28, 0.000, 0.000, 0.000, 23:35:24.558
143, -973.03, -1087.61, -448.57, -298.64, 0.000, 0.000, 0.000, 23:35:24.558
144, -969.38, -1084.20, -446.30, -304.89, 0.000, 0.000, 0.000, 23:35:24.559
147, -964.95, -1075.52, -436.24, -297.14, 0.000, 0.000, 0.000, 23:35:24.586
148, -964.33, -1078.85, -446.45, -311.89, 0.000, 0.000, 0.000, 23:35:24.586
149, -971.93, -1082.02, -443.17, -301.30, 0.000, 0.000, 0.000, 23:35:24.587
150, -974.52, -1088.10, -431.77, -295.88, 0.000, 0.000, 0.000, 23:35:24.587
153, -977.79, -1092.00, -423.60, -287.33, 0.000, 0.000, 0.000, 23:35:24.616
154, -973.27, -1089.75, -419.53, -290.41, 0.000, 0.000, 0.000, 23:35:24.617
155, -974.55, -1092.01, -429.21, -296.78, 0.000, 0.000, 0.000, 23:35:24.618
156, -978.97, -1095.87, -427.90, -287.77, 0.000, 0.000, 0.000, 23:35:24.618
159, -977.60, -1102.08, -441.01, -291.83, 0.000, 0.000, 0.000, 23:35:24.677
160, -986.97, -1116.83, -427.63, -289.77, 0.000, 0.000, 0.000, 23:35:24.678
161, -978.02, -1103.34, -431.22, -294.31, 0.000, 0.000, 0.000, 23:35:24.679
162, -987.31, -1106.10, -444.92, -305.74, 0.000, 0.000, 0.000, 23:35:24.679
165, -981.14, -1096.05, -445.43, -297.74, 0.000, 0.000, 0.000, 23:35:24.707
166, -989.41, -1106.71, -461.04, -307.88, 0.000, 0.000, 0.000, 23:35:24.708
167, -989.21, -1094.60, -439.74, -294.52, 0.000, 0.000, 0.000, 23:35:24.708
168, -975.00, -1090.27, -442.52, -290.70, 0.000, 0.000, 0.000, 23:35:24.708
171, -961.10, -1078.28, -435.57, -279.84, 0.000, 0.000, 0.000, 23:35:24.737
172, -956.20, -1079.11, -437.75, -282.93, 0.000, 0.000, 0.000, 23:35:24.738
173, -981.28, -1101.85, -453.39, -300.15, 0.000, 0.000, 0.000, 23:35:24.739
174, -975.04, -1095.25, -443.46, -292.37, 0.000, 0.000, 0.000, 23:35:24.739
177, -983.41, -1098.81, -441.69, -293.50, 0.000, 0.000, 0.000, 23:35:24.767
178, -985.88, -1105.11, -449.77, -306.14, 0.000, 0.000, 0.000, 23:35:24.768
183, -987.72, -1106.36, -451.58, -304.94, 0.000, 0.000, 0.000, 23:35:24.769
184, -993.03, -1107.81, -447.43, -306.85, 0.000, 0.000, 0.000, 23:35:24.769
189, -1005.85, -1119.85, -461.37, -314.76, 0.000, 0.000, 0.000, 23:35:24.799
190, -1004.00, -1112.78, -440.77, -300.45, 0.000, 0.000, 0.000, 23:35:24.799
191, -1004.43, -1114.21, -450.20, -309.03, 0.000, 0.000, 0.000, 23:35:24.801
192, -983.63, -1102.75, -443.96, -299.71, 0.000, 0.000, 0.000, 23:35:24.801
195, -970.20, -1095.70, -451.84, -298.43, 0.000, 0.000, 0.000, 23:35:24.826
196, -974.00, -1095.01, -456.94, -298.87, 0.000, 0.000, 0.000, 23:35:24.827
197, -983.60, -1097.08, -459.48, -311.96, 0.000, 0.000, 0.000, 23:35:24.828
198, -977.09, -1088.04, -450.97, -307.16, 0.000, 0.000, 0.000, 23:35:24.828
1, -982.80, -1092.06, -457.76, -309.98, 0.000, 0.000, 0.000, 23:35:24.858
2, -982.76, -1098.07, -453.20, -305.87, 0.000, 0.000, 0.000, 23:35:24.858
3, -990.46, -1101.68, -461.17, -315.99, 0.000, 0.000, 0.000, 23:35:24.859
4, -979.48, -1101.04, -455.23, -308.23, 0.000, 0.000, 0.000, 23:35:24.859
7, -976.73, -1096.46, -454.05, -303.45, 0.000, 0.000, 0.000, 23:35:24.887
8, -981.25, -1099.96, -465.24, -304.99, 0.000, 0.000, 0.000, 23:35:24.887
9, -981.25, -1100.69, -460.19, -306.91, 0.000, 0.000, 0.000, 23:35:24.888
10, -965.60, -1084.45, -447.14, -297.96, 0.000, 0.000, 0.000, 23:35:24.888
13, -950.53, -1073.81, -429.94, -282.15, 0.000, 0.000, 0.000, 23:35:24.917
14, -939.33, -1066.22, -426.61, -275.10, 0.000, 0.000, 0.000, 23:35:24.917
15, -956.63, -1084.37, -447.24, -289.35, 0.000, 0.000, 0.000, 23:35:24.918
16, -957.37, -1076.29, -435.61, -285.19, 0.000, 0.000, 0.000, 23:35:24.918
19, -962.92, -1082.46, -441.75, -286.61, 0.000, 0.000, 0.000, 23:35:24.947
20, -957.15, -1078.98, -438.37, -290.81, 0.000, 0.000, 0.000, 23:35:24.947
21, -948.95, -1069.65, -438.68, -289.63, 0.000, 0.000, 0.000, 23:35:24.948
22, -956.53, -1067.93, -437.20, -285.08, 0.000, 0.000, 0.000, 23:35:24.948
25, -953.99, -1065.66, -441.79, -283.38, 0.000, 0.000, 0.000, 23:35:24.976
26, -957.32, -1065.48, -428.98, -280.14, 0.000, 0.000, 0.000, 23:35:24.977
27, -952.51, -1062.06, -428.65, -274.44, 0.000, 0.000, 0.000, 23:35:25.007
28, -956.08, -1073.89, -438.79, -281.15, 0.000, 0.000, 0.000, 23:35:25.007
31, -946.83, -1064.13, -445.70, -278.02, 0.000, 0.000, 0.000, 23:35:25.008
32, -961.56, -1081.86, -445.63, -277.33, 0.000, 0.000, 0.000, 23:35:25.008
33, -952.95, -1070.72, -439.89, -286.54, 0.000, 0.000, 0.000, 23:35:25.037
34, -942.89, -1061.11, -443.57, -281.63, 0.000, 0.000, 0.000, 23:35:25.037
37, -931.37, -1052.74, -445.06, -281.37, 0.000, 0.000, 0.000, 23:35:25.038
38, -936.68, -1055.42, -440.28, -271.11, 0.000, 0.000, 0.000, 23:35:25.038
39, -939.19, -1054.47, -427.52, -264.06, 0.000, 0.000, 0.000, 23:35:25.066
40, -949.69, -1069.60, -430.23, -267.17, 0.000, 0.000, 0.000, 23:35:25.066
43, -944.22, -1065.79, -421.70, -272.17, 0.000, 0.000, 0.000, 23:35:25.068
44, -940.74, -1065.97, -428.16, -272.43, 0.000, 0.000, 0.000, 23:35:25.068
45, -940.15, -1071.27, -427.23, -270.22, 0.000, 0.000, 0.000, 23:35:25.096
46, -935.46, -1063.82, -423.45, -265.73, 0.000, 0.000, 0.000, 23:35:25.096
49, -951.50, -1069.08, -417.74, -270.45, 0.000, 0.000, 0.000, 23:35:25.097
50, -933.03, -1053.33, -406.43, -263.33, 0.000, 0.000, 0.000, 23:35:25.097
55, -937.35, -1062.19, -408.70, -264.52, 0.000, 0.000, 0.000, 23:35:25.126
56, -932.73, -1059.69, -403.73, -262.21, 0.000, 0.000, 0.000, 23:35:25.126
57, -919.91, -1046.50, -401.19, -266.31, 0.000, 0.000, 0.000, 23:35:25.127
58, -926.77, -1052.05, -412.30, -268.49, 0.000, 0.000, 0.000, 23:35:25.128
61, -926.85, -1051.59, -420.64, -273.56, 0.000, 0.000, 0.000, 23:35:25.156
62, -926.84, -1055.47, -405.86, -256.96, 0.000, 0.000, 0.000, 23:35:25.157
63, -938.28, -1065.86, -410.06, -264.87, 0.000, 0.000, 0.000, 23:35:25.157
64, -917.78, -1050.63, -397.29, -246.18, 0.000, 0.000, 0.000, 23:35:25.157
67, -907.04, -1043.56, -399.38, -248.81, 0.000, 0.000, 0.000, 23:35:25.186
68, -912.53, -1050.95, -402.82, -252.15, 0.000, 0.000, 0.000, 23:35:25.186
69, -914.58, -1055.56, -408.30, -256.13, 0.000, 0.000, 0.000, 23:35:25.187
70, -917.98, -1052.94, -399.08, -249.94, 0.000, 0.000, 0.000, 23:35:25.188
73, -913.21, -1049.00, -395.68, -260.91, 0.000, 0.000, 0.000, 23:35:25.217
74, -916.97, -1054.43, -402.44, -262.84, 0.000, 0.000, 0.000, 23:35:25.218
75, -924.24, -1057.80, -407.07, -261.38, 0.000, 0.000, 0.000, 23:35:25.218
76, -921.79, -1053.91, -396.89, -256.09, 0.000, 0.000, 0.000, 23:35:25.218
79, -933.57, -1068.29, -400.00, -261.36, 0.000, 0.000, 0.000, 23:35:25.247
80, -925.13, -1062.23, -395.25, -262.83, 0.000, 0.000, 0.000, 23:35:25.247
81, -926.45, -1060.18, -405.87, -272.86, 0.000, 0.000, 0.000, 23:35:25.248
82, -924.45, -1059.51, -399.48, -260.92, 0.000, 0.000, 0.000, 23:35:25.248
85, -929.28, -1069.57, -409.32, -260.08, 0.000, 0.000, 0.000, 23:35:25.276
86, -936.81, -1070.93, -404.66, -266.82, 0.000, 0.000, 0.000, 23:35:25.276
87, -937.53, -1074.00, -409.96, -267.50, 0.000, 0.000, 0.000, 23:35:25.277
88, -946.71, -1081.35, -420.17, -272.60, 0.000, 0.000, 0.000, 23:35:25.278
91, -946.21, -1079.30, -424.10, -275.53, 0.000, 0.000, 0.000, 23:35:25.306
92, -961.00, -1087.79, -432.53, -282.23, 0.000, 0.000, 0.000, 23:35:25.307
93, -959.20, -1081.04, -418.75, -272.68, 0.000, 0.000, 0.000, 23:35:25.307
94, -961.32, -1081.81, -427.65, -280.58, 0.000, 0.000, 0.000, 23:35:25.307
97, -966.23, -1081.80, -440.57, -294.00, 0.000, 0.000, 0.000, 23:35:25.337
98, -966.63, -1091.76, -441.90, -286.09, 0.000, 0.000, 0.000, 23:35:25.338
99, -956.82, -1080.61, -422.77, -272.71, 0.000, 0.000, 0.000, 23:35:25.340
100, -955.27, -1075.84, -423.39, -281.37, 0.000, 0.000, 0.000, 23:35:25.340
103, -944.75, -1067.80, -413.10, -274.13, 0.000, 0.000, 0.000, 23:35:25.366
104, -946.68, -1065.82, -420.13, -281.45, 0.000, 0.000, 0.000, 23:35:25.366
105, -944.45, -1063.47, -425.11, -279.34, 0.000, 0.000, 0.000, 23:35:25.367
106, -945.20, -1063.59, -416.98, -278.05, 0.000, 0.000, 0.000, 23:35:25.367
109, -954.16, -1071.89, -419.61, -289.20, 0.000, 0.000, 0.000, 23:35:25.397
110, -947.32, -1067.75, -413.38, -283.21, 0.000, 0.000, 0.000, 23:35:25.397
111, -946.82, -1071.34, -423.16, -282.68, 0.000, 0.000, 0.000, 23:35:25.398
112, -961.50, -1081.35, -431.66, -291.54, 0.000, 0.000, 0.000, 23:35:25.398
115, -964.53, -1087.55, -434.57, -288.99, 0.000, 0.000, 0.000, 23:35:25.427
116, -959.42, -1085.35, -417.73, -275.53, 0.000, 0.000, 0.000, 23:35:25.427
117, -956.66, -1080.22, -413.28, -272.84, 0.000, 0.000, 0.000, 23:35:25.428
118, -957.19, -1077.71, -412.01, -264.22, 0.000, 0.000, 0.000, 23:35:25.428
121, -952.17, -1073.21, -419.35, -270.51, 0.000, 0.000, 0.000, 23:35:25.457
122, -958.89, -1077.87, -422.65, -270.58, 0.000, 0.000, 0.000, 23:35:25.458
123, -961.42, -1075.66, -417.55, -267.67, 0.000, 0.000, 0.000, 23:35:25.458
124, -947.76, -1066.47, -416.33, -269.01, 0.000, 0.000, 0.000, 23:35:25.459
127, -931.73, -1058.20, -412.21, -260.77, 0.000, 0.000, 0.000, 23:35:25.487
128, -948.98, -1060.93, -423.06, -268.28, 0.000, 0.000, 0.000, 23:35:25.488
129, -956.97, -1072.07, -422.82, -271.97, 0.000, 0.000, 0.000, 23:35:25.488
130, -947.20, -1067.62, -424.28, -279.58, 0.000, 0.000, 0.000, 23:35:25.489
133, -943.29, -1068.70, -414.79, -285.81, 0.000, 0.000, 0.000, 23:35:25.516
134, -932.07, -1062.25, -410.61, -269.61, 0.000, 0.000, 0.000, 23:35:25.517
135, -958.49, -1081.40, -415.67, -275.15, 0.000, 0.000, 0.000, 23:35:25.518
136, -943.55, -1065.98, -408.15, -269.99, 0.000, 0.000, 0.000, 23:35:25.518
139, -935.49, -1060.18, -397.15, -257.48, 0.000, 0.000, 0.000, 23:35:25.547
140, -933.59, -1050.61, -400.54, -264.83, 0.000, 0.000, 0.000, 23:35:25.547
141, -930.07, -1056.69, -408.28, -265.58, 0.000, 0.000, 0.000, 23:35:25.548
142, -942.41, -1061.13, -408.43, -265.44, 0.000, 0.000, 0.000, 23:35:25.549
145, -960.24, -1071.64, -412.26, -270.73, 0.000, 0.000, 0.000, 23:35:25.577
146, -969.88, -1078.33, -410.18, -271.41, 0.000, 0.000, 0.000, 23:35:25.578
147, -961.19, -1076.56, -408.40, -275.19, 0.000, 0.000, 0.000, 23:35:25.578
148, -965.46, -1078.34, -411.76, -269.82, 0.000, 0.000, 0.000, 23:35:25.578
151, -963.39, -1075.34, -418.52, -268.91, 0.000, 0.000, 0.000, 23:35:25.607
152, -966.78, -1084.21, -414.47, -267.99, 0.000, 0.000, 0.000, 23:35:25.607
153, -966.38, -1077.87, -406.40, -264.50, 0.000, 0.000, 0.000, 23:35:25.608
154, -953.68, -1071.83, -400.22, -253.35, 0.000, 0.000, 0.000, 23:35:25.608
157, -945.69, -1066.02, -404.75, -250.94, 0.000, 0.000, 0.000, 23:35:25.636
158, -957.97, -1075.79, -413.90, -258.93, 0.000, 0.000, 0.000, 23:35:25.636
159, -962.24, -1088.08, -418.11, -264.87, 0.000, 0.000, 0.000, 23:35:25.637
160, -960.37, -1082.46, -419.46, -270.30, 0.000, 0.000, 0.000, 23:35:25.638
163, -962.63, -1086.08, -417.17, -280.00, 0.000, 0.000, 0.000, 23:35:25.667
164, -953.67, -1081.29, -414.69, -272.48, 0.000, 0.000, 0.000, 23:35:25.667
165, -970.68, -1102.49, -430.52, -277.86, 0.000, 0.000, 0.000, 23:35:25.668
166, -972.92, -1098.76, -413.58, -274.80, 0.000, 0.000, 0.000, 23:35:25.668
169, -979.08, -1096.82, -407.43, -265.75, 0.000, 0.000, 0.000, 23:35:25.696
170, -972.71, -1093.68, -409.05, -272.50, 0.000, 0.000, 0.000, 23:35:25.697
171, -969.23, -1092.42, -417.64, -276.38, 0.000, 0.000, 0.000, 23:35:25.698
172, -990.20, -1113.93, -416.73, -279.80, 0.000, 0.000, 0.000, 23:35:25.699
175, -1000.52, -1119.93, -414.35, -274.36, 0.000, 0.000, 0.000, 23:35:25.727
176, -997.38, -1118.25, -401.74, -264.98, 0.000, 0.000, 0.000, 23:35:25.728
177, -992.86, -1114.71, -413.60, -273.81, 0.000, 0.000, 0.000, 23:35:25.728
178, -998.95, -1121.42, -422.71, -277.08, 0.000, 0.000, 0.000, 23:35:25.728
181, -1005.54, -1126.23, -431.25, -277.38, 0.000, 0.000, 0.000, 23:35:25.757
182, -990.40, -1112.30, -415.71, -262.36, 0.000, 0.000, 0.000, 23:35:25.757
183, -992.52, -1119.74, -419.66, -267.77, 0.000, 0.000, 0.000, 23:35:25.758
184, -969.42, -1097.11, -416.03, -265.74, 0.000, 0.000, 0.000, 23:35:25.759
187, -964.28, -1091.46, -419.74, -268.23, 0.000, 0.000, 0.000, 23:35:25.787
188, -967.20, -1100.40, -427.81, -269.93, 0.000, 0.000, 0.000, 23:35:25.787
189, -963.17, -1094.19, -413.92, -259.96, 0.000, 0.000, 0.000, 23:35:25.788
190, -957.00, -1087.79, -413.73, -266.57, 0.000, 0.000, 0.000, 23:35:25.788
193, -951.65, -1082.21, -405.77, -266.08, 0.000, 0.000, 0.000, 23:35:25.817
194, -951.20, -1082.90, -425.92, -283.39, 0.000, 0.000, 0.000, 23:35:25.818
195, -949.79, -1082.76, -416.55, -265.78, 0.000, 0.000, 0.000, 23:35:25.818
196, -952.12, -1086.36, -409.36, -268.04, 0.000, 0.000, 0.000, 23:35:25.819
199, -957.96, -1092.30, -398.53, -259.32, 0.000, 0.000, 0.000, 23:35:25.848
200, -960.39, -1086.18, -400.42, -264.39, 0.000, 0.000, 0.000, 23:35:25.848
0, -934.09, -1036.70, -417.17, -269.45, 0.000, 0.000, 0.000, 23:35:25.848
3, -928.38, -1032.69, -427.18, -276.35, 0.000, 0.000, 0.000, 23:35:25.876
4, -935.73, -1040.84, -426.12, -271.31, 0.000, 0.000, 0.000, 23:35:25.877
5, -941.76, -1040.19, -416.70, -263.47, 0.000, 0.000, 0.000, 23:35:25.877
6, -941.82, -1035.03, -428.88, -285.89, 0.000, 0.000, 0.000, 23:35:25.877
9, -940.13, -1031.36, -431.88, -299.44, 0.000, 0.000, 0.000, 23:35:25.907
10, -933.12, -1027.17, -444.34, -304.08, 0.000, 0.000, 0.000, 23:35:25.907
11, -910.04, -1005.33, -425.18, -283.41, 0.000, 0.000, 0.000, 23:35:25.908
12, -915.90, -1011.86, -428.31, -297.28, 0.000, 0.000, 0.000, 23:35:25.908
15, -922.33, -1014.74, -431.76, -311.52, 0.000, 0.000, 0.000, 23:35:25.937
16, -905.60, -998.67, -433.79, -314.54, 0.000, 0.000, 0.000, 23:35:25.938
17, -887.05, -991.32, -432.85, -309.00, 0.000, 0.000, 0.000, 23:35:25.938
18, -867.05, -973.21, -406.96, -288.70, 0.000, 0.000, 0.000, 23:35:25.939
21, -886.07, -988.02, -397.68, -277.03, 0.000, 0.000, 0.000, 23:35:25.967
22, -893.09, -990.66, -387.76, -278.47, 0.000, 0.000, 0.000, 23:35:25.967
23, -912.52, -993.97, -414.87, -296.82, 0.000, 0.000, 0.000, 23:35:25.968
24, -931.73, -1018.24, -417.48, -299.67, 0.000, 0.000, 0.000, 23:35:25.968
27, -951.64, -1033.87, -418.19, -299.18, 0.000, 0.000, 0.000, 23:35:25.997
28, -973.63, -1051.42, -405.18, -286.40, 0.000, 0.000, 0.000, 23:35:25.997
29, -986.21, -1067.71, -410.89, -297.82, 0.000, 0.000, 0.000, 23:35:25.998
30, -999.50, -1073.35, -427.48, -305.45, 0.000, 0.000, 0.000, 23:35:25.998
33, -988.46, -1065.29, -425.71, -300.76, 0.000, 0.000, 0.000, 23:35:26.027
34, -992.65, -1066.90, -421.31, -290.20, 0.000, 0.000, 0.000, 23:35:26.027
35, -998.33, -1068.72, -419.51, -291.82, 0.000, 0.000, 0.000, 23:35:26.028
36, -1003.75, -1074.90, -436.33, -312.66, 0.000, 0.000, 0.000, 23:35:26.028
39, -1002.80, -1074.05, -443.98, -325.02, 0.000, 0.000, 0.000, 23:35:26.057
40, -992.75, -1069.13, -454.59, -326.83, 0.000, 0.000, 0.000, 23:35:26.058
41, -990.61, -1065.78, -437.34, -313.63, 0.000, 0.000, 0.000, 23:35:26.058
42, -988.46, -1060.49, -435.86, -320.71, 0.000, 0.000, 0.000, 23:35:26.059
45, -987.27, -1054.87, -425.10, -315.78, 0.000, 0.000, 0.000, 23:35:26.087
46, -983.72, -1050.08, -434.10, -327.12, 0.000, 0.000, 0.000, 23:35:26.088
47, -977.79, -1051.25, -443.96, -329.97, 0.000, 0.000, 0.000, 23:35:26.088
48, -989.45, -1057.77, -431.46, -320.86, 0.000, 0.000, 0.000, 23:35:26.088
51, -969.28, -1041.07, -395.05, -283.20, 0.000, 0.000, 0.000, 23:35:26.117
52, -954.02, -1025.54, -371.90, -270.53, 0.000, 0.000, 0.000, 23:35:26.117
53, -954.61, -1024.75, -389.12, -281.56, 0.000, 0.000, 0.000, 23:35:26.118
54, -963.02, -1036.15, -388.57, -270.46, 0.000, 0.000, 0.000, 23:35:26.118
57, -957.27, -1032.05, -394.88, -261.95, 0.000, 0.000, 0.000, 23:35:26.147
58, -957.00, -1035.72, -391.05, -263.57, 0.000, 0.000, 0.000, 23:35:26.148
59, -948.28, -1025.88, -395.87, -273.14, 0.000, 0.000, 0.000, 23:35:26.148
60, -942.65, -1022.28, -395.80, -261.02, 0.000, 0.000, 0.000, 23:35:26.148
63, -933.37, -1017.58, -406.65, -277.50, 0.000, 0.000, 0.000, 23:35:26.176
64, -942.27, -1019.17, -407.46, -265.73, 0.000, 0.000, 0.000, 23:35:26.176
65, -952.56, -1024.20, -390.91, -262.67, 0.000, 0.000, 0.000, 23:35:26.177
66, -955.46, -1026.02, -397.40, -271.72, 0.000, 0.000, 0.000, 23:35:26.177
69, -958.25, -1027.14, -393.72, -270.71, 0.000, 0.000, 0.000, 23:35:26.206
70, -950.83, -1022.48, -408.55, -281.76, 0.000, 0.000, 0.000, 23:35:26.207
71, -947.67, -1027.64, -396.38, -271.75, 0.000, 0.000, 0.000, 23:35:26.208
72, -936.87, -1025.19, -385.68, -265.14, 0.000, 0.000, 0.000, 23:35:26.208
75, -937.96, -1029.12, -373.88, -256.96, 0.000, 0.000, 0.000, 23:35:26.267
76, -937.38, -1037.07, -387.82, -273.13, 0.000, 0.000, 0.000, 23:35:26.267
77, -937.10, -1032.81, -387.56, -272.26, 0.000, 0.000, 0.000, 23:35:26.268
78, -938.73, -1036.40, -360.76, -250.66, 0.000, 0.000, 0.000, 23:35:26.268
83, -955.12, -1047.66, -384.17, -268.96, 0.000, 0.000, 0.000, 23:35:26.297
84, -962.93, -1058.57, -381.30, -261.31, 0.000, 0.000, 0.000, 23:35:26.297
85, -979.97, -1071.20, -390.69, -278.92, 0.000, 0.000, 0.000, 23:35:26.298
86, -981.18, -1066.95, -402.37, -294.21, 0.000, 0.000, 0.000, 23:35:26.298
87, -970.18, -1051.57, -391.65, -280.28, 0.000, 0.000, 0.000, 23:35:26.326
88, -968.18, -1057.82, -376.85, -266.34, 0.000, 0.000, 0.000, 23:35:26.327
89, -975.31, -1059.66, -390.37, -280.03, 0.000, 0.000, 0.000, 23:35:26.328
90, -984.65, -1064.48, -411.96, -298.29, 0.000, 0.000, 0.000, 23:35:26.328
93, -960.47, -1052.68, -410.93, -292.24, 0.000, 0.000, 0.000, 23:35:26.357
94, -959.26, -1051.79, -397.61, -267.83, 0.000, 0.000, 0.000, 23:35:26.358
101, -965.44, -1053.43, -388.35, -257.34, 0.000, 0.000, 0.000, 23:35:26.358
102, -963.78, -1050.72, -394.27, -266.53, 0.000, 0.000, 0.000, 23:35:26.359
105, -958.81, -1043.84, -382.50, -262.07, 0.000, 0.000, 0.000, 23:35:26.387
106, -950.64, -1038.58, -389.38, -273.87, 0.000, 0.000, 0.000, 23:35:26.387
107, -956.25, -1040.89, -394.50, -267.59, 0.000, 0.000, 0.000, 23:35:26.388
108, -979.26, -1059.96, -398.36, -281.83, 0.000, 0.000, 0.000, 23:35:26.388
111, -951.30, -1044.89, -377.93, -258.52, 0.000, 0.000, 0.000, 23:35:26.416
112, -952.23, -1041.13, -381.96, -272.81, 0.000, 0.000, 0.000, 23:35:26.416
113, -931.11, -1021.43, -372.83, -260.90, 0.000, 0.000, 0.000, 23:35:26.417
114, -937.57, -1030.61, -370.94, -248.44, 0.000, 0.000, 0.000, 23:35:26.418
117, -928.15, -1029.17, -366.75, -235.19, 0.000, 0.000, 0.000, 23:35:26.446
118, -939.13, -1034.80, -366.45, -239.58, 0.000, 0.000, 0.000, 23:35:26.446
119, -940.82, -1038.06, -376.95, -255.49, 0.000, 0.000, 0.000, 23:35:26.447
120, -946.71, -1040.73, -392.67, -261.63, 0.000, 0.000, 0.000, 23:35:26.447
125, -942.81, -1036.52, -380.15, -259.78, 0.000, 0.000, 0.000, 23:35:26.477
126, -905.47, -1000.93, -353.41, -235.84, 0.000, 0.000, 0.000, 23:35:26.477
127, -927.29, -1014.38, -371.49, -246.06, 0.000, 0.000, 0.000, 23:35:26.478
128, -928.96, -1015.68, -361.86, -237.83, 0.000, 0.000, 0.000, 23:35:26.478
131, -931.19, -1015.17, -355.59, -221.08, 0.000, 0.000, 0.000, 23:35:26.507
132, -929.80, -1015.52, -346.49, -222.66, 0.000, 0.000, 0.000, 23:35:26.508
133, -930.01, -1013.44, -349.58, -227.22, 0.000, 0.000, 0.000, 23:35:26.508
134, -943.57, -1028.23, -353.11, -227.43, 0.000, 0.000, 0.000, 23:35:26.508
137, -953.59, -1034.52, -367.11, -235.72, 0.000, 0.000, 0.000, 23:35:26.537
138, -955.87, -1037.33, -357.30, -228.88, 0.000, 0.000, 0.000, 23:35:26.538
139, -949.57, -1032.87, -363.31, -239.21, 0.000, 0.000, 0.000, 23:35:26.538
140, -940.01, -1020.07, -362.85, -235.13, 0.000, 0.000, 0.000, 23:35:26.538
143, -933.67, -1020.87, -375.94, -245.07, 0.000, 0.000, 0.000, 23:35:26.566
144, -929.10, -1015.32, -361.32, -227.10, 0.000, 0.000, 0.000, 23:35:26.567
145, -947.59, -1026.32, -357.70, -231.10, 0.000, 0.000, 0.000, 23:35:26.567
146, -942.07, -1029.27, -371.76, -245.48, 0.000, 0.000, 0.000, 23:35:26.567
149, -934.74, -1027.91, -373.59, -250.92, 0.000, 0.000, 0.000, 23:35:26.596
150, -918.94, -1015.76, -370.74, -237.77, 0.000, 0.000, 0.000, 23:35:26.597
151, -919.91, -1017.10, -356.79, -225.10, 0.000, 0.000, 0.000, 23:35:26.599
152, -915.08, -1018.60, -355.36, -233.06, 0.000, 0.000, 0.000, 23:35:26.599
155, -921.08, -1024.18, -350.31, -232.10, 0.000, 0.000, 0.000, 23:35:26.627
156, -899.64, -1004.40, -345.85, -224.30, 0.000, 0.000, 0.000, 23:35:26.628
157, -901.78, -1009.37, -348.59, -217.78, 0.000, 0.000, 0.000, 23:35:26.629
158, -903.64, -1013.24, -335.71, -214.61, 0.000, 0.000, 0.000, 23:35:26.629
161, -907.29, -1017.66, -324.03, -199.34, 0.000, 0.000, 0.000, 23:35:26.657
162, -905.81, -1010.77, -312.39, -201.10, 0.000, 0.000, 0.000, 23:35:26.657
163, -898.35, -1000.58, -308.81, -195.66, 0.000, 0.000, 0.000, 23:35:26.658
164, -915.83, -1016.82, -315.83, -200.36, 0.000, 0.000, 0.000, 23:35:26.659
167, -925.66, -1022.61, -325.08, -199.30, 0.000, 0.000, 0.000, 23:35:26.687
168, -930.88, -1027.88, -318.06, -194.72, 0.000, 0.000, 0.000, 23:35:26.687
169, -926.17, -1027.44, -324.28, -208.54, 0.000, 0.000, 0.000, 23:35:26.688
170, -915.62, -1019.37, -333.63, -209.38, 0.000, 0.000, 0.000, 23:35:26.688
173, -923.36, -1024.90, -358.55, -228.91, 0.000, 0.000, 0.000, 23:35:26.717
174, -923.00, -1022.28, -351.70, -219.98, 0.000, 0.000, 0.000, 23:35:26.718
175, -913.97, -1018.16, -340.07, -210.16, 0.000, 0.000, 0.000, 23:35:26.718
176, -912.98, -1019.25, -357.90, -229.45, 0.000, 0.000, 0.000, 23:35:26.719
179, -911.39, -1011.91, -359.92, -233.69, 0.000, 0.000, 0.000, 23:35:26.746
180, -888.77, -991.63, -365.16, -229.03, 0.000, 0.000, 0.000, 23:35:26.747
181, -879.72, -982.14, -346.86, -210.85, 0.000, 0.000, 0.000, 23:35:26.748
182, -878.24, -983.32, -348.51, -219.54, 0.000, 0.000, 0.000, 23:35:26.748
185, -889.04, -992.60, -344.65, -230.70, 0.000, 0.000, 0.000, 23:35:26.776
186, -890.83, -989.60, -354.40, -235.06, 0.000, 0.000, 0.000, 23:35:26.776
187, -880.96, -982.65, -352.41, -223.03, 0.000, 0.000, 0.000, 23:35:26.778
188, -883.08, -986.68, -336.64, -213.50, 0.000, 0.000, 0.000, 23:35:26.779
191, -894.36, -996.44, -329.88, -206.18, 0.000, 0.000, 0.000, 23:35:26.808
192, -889.22, -996.09, -332.05, -211.76, 0.000, 0.000, 0.000, 23:35:26.810
193, -875.74, -982.39, -327.57, -211.06, 0.000, 0.000, 0.000, 23:35:26.813
194, -881.75, -992.17, -331.94, -208.64, 0.000, 0.000, 0.000, 23:35:26.813
197, -889.76, -1000.40, -342.53, -207.13, 0.000, 0.000, 0.000, 23:35:26.837
198, -898.05, -1002.82, -328.59, -197.34, 0.000, 0.000, 0.000, 23:35:26.837
199, -898.68, -1002.80, -337.34, -204.22, 0.000, 0.000, 0.000, 23:35:26.837
200, -901.85, -1009.89, -349.53, -214.62, 0.000, 0.000, 0.000, 23:35:26.838
1, -902.95, -1010.88, -347.76, -221.23, 0.000, 0.000, 0.000, 23:35:26.896
2, -882.66, -999.81, -355.97, -223.77, 0.000, 0.000, 0.000, 23:35:26.897
3, -890.72, -1002.09, -362.89, -222.18, 0.000, 0.000, 0.000, 23:35:26.898
4, -892.32, -1001.81, -360.33, -230.70, 0.000, 0.000, 0.000, 23:35:26.898
7, -889.73, -997.20, -356.18, -221.40, 0.000, 0.000, 0.000, 23:35:26.927
8, -878.59, -988.94, -354.14, -223.32, 0.000, 0.000, 0.000, 23:35:26.927
9, -877.29, -988.74, -361.36, -221.64, 0.000, 0.000, 0.000, 23:35:26.927
10, -887.04, -996.75, -345.25, -207.33, 0.000, 0.000, 0.000, 23:35:26.927
13, -901.36, -1009.87, -348.26, -208.31, 0.000, 0.000, 0.000, 23:35:26.956
14, -891.38, -1004.50, -317.71, -187.09, 0.000, 0.000, 0.000, 23:35:26.957
15, -875.95, -989.38, -314.08, -187.93, 0.000, 0.000, 0.000, 23:35:26.958
16, -875.30, -992.82, -326.04, -191.96, 0.000, 0.000, 0.000, 23:35:26.958
25, -870.13, -987.31, -340.99, -206.30, 0.000, 0.000, 0.000, 23:35:26.987
26, -862.88, -985.91, -344.39, -200.66, 0.000, 0.000, 0.000, 23:35:26.987
27, -871.78, -990.42, -340.12, -199.83, 0.000, 0.000, 0.000, 23:35:26.988
28, -854.43, -970.89, -327.93, -201.04, 0.000, 0.000, 0.000, 23:35:26.988
31, -871.92, -982.79, -326.05, -209.69, 0.000, 0.000, 0.000, 23:35:27.017
32, -876.22, -986.29, -349.05, -221.60, 0.000, 0.000, 0.000, 23:35:27.018
33, -888.42, -995.00, -349.74, -216.81, 0.000, 0.000, 0.000, 23:35:27.018
34, -890.30, -988.41, -333.33, -203.45, 0.000, 0.000, 0.000, 23:35:27.018
37, -899.74, -996.02, -318.81, -189.11, 0.000, 0.000, 0.000, 23:35:27.047
38, -878.17, -981.58, -309.70, -185.47, 0.000, 0.000, 0.000, 23:35:27.048
39, -891.12, -995.37, -325.05, -191.70, 0.000, 0.000, 0.000, 23:35:27.048
40, -923.17, -1023.93, -332.25, -198.23, 0.000, 0.000, 0.000, 23:35:27.048
43, -941.48, -1038.30, -326.77, -191.45, 0.000, 0.000, 0.000, 23:35:27.077
44, -939.85, -1035.23, -317.45, -183.65, 0.000, 0.000, 0.000, 23:35:27.077
45, -952.01, -1045.27, -326.23, -192.10, 0.000, 0.000, 0.000, 23:35:27.078
46, -953.82, -1059.07, -328.74, -191.59, 0.000, 0.000, 0.000, 23:35:27.078
49, -976.78, -1077.33, -353.96, -213.26, 0.000, 0.000, 0.000, 23:35:27.106
50, -1005.83, -1104.74, -365.55, -224.16, 0.000, 0.000, 0.000, 23:35:27.107
51, -1019.25, -1119.30, -358.18, -226.93, 0.000, 0.000, 0.000, 23:35:27.108
52, -991.54, -1087.68, -347.88, -209.01, 0.000, 0.000, 0.000, 23:35:27.108
55, -1004.92, -1097.52, -373.68, -240.64, 0.000, 0.000, 0.000, 23:35:27.136
56, -995.31, -1094.49, -376.55, -230.22, 0.000, 0.000, 0.000, 23:35:27.137
57, -1007.80, -1104.44, -371.15, -224.93, 0.000, 0.000, 0.000, 23:35:27.138
58, -994.46, -1089.32, -373.50, -234.11, 0.000, 0.000, 0.000, 23:35:27.138
61, -990.90, -1079.51, -368.93, -242.20, 0.000, 0.000, 0.000, 23:35:27.167
62, -975.21, -1073.57, -381.68, -252.39, 0.000, 0.000, 0.000, 23:35:27.167
63, -972.18, -1065.69, -379.94, -246.98, 0.000, 0.000, 0.000, 23:35:27.168
64, -954.44, -1052.04, -365.73, -238.29, 0.000, 0.000, 0.000, 23:35:27.168
67, -947.86, -1039.60, -352.12, -223.17, 0.000, 0.000, 0.000, 23:35:27.197
68, -913.32, -1012.45, -341.97, -228.18, 0.000, 0.000, 0.000, 23:35:27.197
69, -921.45, -1023.19, -367.78, -244.37, 0.000, 0.000, 0.000, 23:35:27.198
70, -935.22, -1036.00, -373.50, -245.72, 0.000, 0.000, 0.000, 23:35:27.199
73, -925.19, -1023.45, -354.54, -218.40, 0.000, 0.000, 0.000, 23:35:27.226
74, -927.45, -1022.84, -332.65, -197.91, 0.000, 0.000, 0.000, 23:35:27.226
75, -943.61, -1039.25, -340.14, -216.25, 0.000, 0.000, 0.000, 23:35:27.227
76, -965.54, -1059.40, -352.95, -222.47, 0.000, 0.000, 0.000, 23:35:27.228
79, -980.76, -1078.00, -364.89, -235.45, 0.000, 0.000, 0.000, 23:35:27.256
80, -989.08, -1083.72, -354.03, -219.97, 0.000, 0.000, 0.000, 23:35:27.256
81, -1012.48, -1103.25, -351.91, -221.55, 0.000, 0.000, 0.000, 23:35:27.257
82, -1006.56, -1100.43, -370.15, -230.84, 0.000, 0.000, 0.000, 23:35:27.257
85, -1013.35, -1103.81, -374.21, -232.61, 0.000, 0.000, 0.000, 23:35:27.286
86, -1021.73, -1116.31, -398.23, -253.49, 0.000, 0.000, 0.000, 23:35:27.286
87, -1030.99, -1125.58, -378.21, -237.54, 0.000, 0.000, 0.000, 23:35:27.288
88, -1045.08, -1147.91, -402.04, -268.44, 0.000, 0.000, 0.000, 23:35:27.288
91, -1067.77, -1167.78, -406.25, -275.68, 0.000, 0.000, 0.000, 23:35:27.316
92, -1058.23, -1159.35, -418.26, -286.04, 0.000, 0.000, 0.000, 23:35:27.317
93, -1062.69, -1162.80, -407.17, -273.55, 0.000, 0.000, 0.000, 23:35:27.317
94, -1069.54, -1167.79, -397.62, -267.70, 0.000, 0.000, 0.000, 23:35:27.317
97, -1081.72, -1179.61, -398.76, -272.29, 0.000, 0.000, 0.000, 23:35:27.346
98, -1086.38, -1177.55, -412.05, -292.06, 0.000, 0.000, 0.000, 23:35:27.346
99, -1075.37, -1171.68, -416.54, -288.20, 0.000, 0.000, 0.000, 23:35:27.347
100, -1088.10, -1170.79, -408.52, -278.99, 0.000, 0.000, 0.000, 23:35:27.347
103, -1084.46, -1163.07, -403.02, -274.52, 0.000, 0.000, 0.000, 23:35:27.377
104, -1069.43, -1152.96, -385.66, -262.28, 0.000, 0.000, 0.000, 23:35:27.377
105, -1069.98, -1151.14, -402.13, -282.27, 0.000, 0.000, 0.000, 23:35:27.378
106, -1060.84, -1157.76, -416.73, -289.16, 0.000, 0.000, 0.000, 23:35:27.378
109, -1056.82, -1202.44, -428.42, -299.49, 0.000, 0.000, 0.000, 23:35:27.407
110, -1105.19, -1230.77, -412.67, -280.19, 0.000, 0.000, 0.000, 23:35:27.408
111, -956.77, -1101.74, -391.77, -262.87, 0.000, 0.000, 0.000, 23:35:27.408
112, -1010.87, -1171.04, -401.73, -277.52, 0.000, 0.000, 0.000, 23:35:27.408
115, -784.29, -978.53, -336.36, -208.47, 0.000, 0.000, 0.000, 23:35:27.436
116, -799.05, -1088.50, -357.82, -227.78, 0.000, 0.000, 0.000, 23:35:27.437
117, -667.70, -872.22, -342.07, -222.84, 0.000, 0.000, 0.000, 23:35:27.437
118, -555.23, -891.03, -348.35, -243.26, 0.000, 0.000, 0.000, 23:35:27.437
121, -520.06, -805.76, -319.14, -227.80, 0.000, 0.000, 0.000, 23:35:27.466
122, -418.80, -694.41, -323.15, -243.23, 0.000, 0.000, 0.000, 23:35:27.467
123, -428.46, -708.61, -314.35, -231.26, 0.000, 0.000, 0.000, 23:35:27.467
124, -317.41, -592.29, -286.01, -215.83, 0.000, 0.000, 0.000, 23:35:27.467
127, -333.17, -676.13, -280.84, -220.45, 0.000, 0.000, 0.000, 23:35:27.497
128, -256.51, -656.88, -276.25, -226.14, 0.000, 0.000, 0.000, 23:35:27.497
129, -375.52, -775.22, -281.19, -225.16, 0.000, 0.000, 0.000, 23:35:27.499
130, -375.34, -764.07, -304.23, -244.71, 0.000, 0.000, 0.000, 23:35:27.499
133, -366.28, -786.47, -254.25, -190.54, 0.000, 0.000, 0.000, 23:35:27.527
134, -290.50, -706.24, -242.56, -180.89, 0.000, 0.000, 0.000, 23:35:27.528
135, -400.40, -813.32, -245.53, -183.43, 0.000, 0.000, 0.000, 23:35:27.528
136, -268.95, -723.37, -247.72, -176.87, 0.000, 0.000, 0.000, 23:35:27.528
139, -322.71, -716.74, -260.63, -180.11, 0.000, 0.000, 0.000, 23:35:27.557
140, -298.71, -791.51, -266.29, -181.26, 0.000, 0.000, 0.000, 23:35:27.557
141, -405.81, -857.38, -266.93, -188.88, 0.000, 0.000, 0.000, 23:35:27.558
142, -412.90, -883.59, -291.23, -209.15, 0.000, 0.000, 0.000, 23:35:27.558
145, -367.74, -828.60, -287.23, -204.44, 0.000, 0.000, 0.000, 23:35:27.587
146, -360.63, -900.58, -285.11, -189.76, 0.000, 0.000, 0.000, 23:35:27.587
147, -396.71, -873.10, -271.25, -178.54, 0.000, 0.000, 0.000, 23:35:27.588
148, -341.80, -863.22, -278.83, -193.21, 0.000, 0.000, 0.000, 23:35:27.588
151, -330.66, -850.03, -255.65, -181.07, 0.000, 0.000, 0.000, 23:35:27.616
152, -315.54, -856.51, -305.16, -225.06, 0.000, 0.000, 0.000, 23:35:27.617
153, -374.36, -897.95, -285.49, -202.96, 0.000, 0.000, 0.000, 23:35:27.618
154, -344.28, -891.97, -289.41, -213.03, 0.000, 0.000, 0.000, 23:35:27.618
157, -382.47, -909.92, -281.73, -208.44, 0.000, 0.000, 0.000, 23:35:27.646
158, -369.40, -918.84, -289.41, -211.64, 0.000, 0.000, 0.000, 23:35:27.646
159, -349.88, -924.53, -300.95, -219.11, 0.000, 0.000, 0.000, 23:35:27.647
160, -340.02, -913.41, -276.90, -192.00, 0.000, 0.000, 0.000, 23:35:27.647
163, -352.92, -933.58, -273.60, -182.34, 0.000, 0.000, 0.000, 23:35:27.677
164, -382.84, -961.67, -276.95, -188.17, 0.000, 0.000, 0.000, 23:35:27.677
165, -416.77, -999.85, -293.68, -205.07, 0.000, 0.000, 0.000, 23:35:27.678
166, -464.82, -1048.26, -299.53, -213.15, 0.000, 0.000, 0.000, 23:35:27.678
169, -554.36, -1107.06, -326.89, -233.22, 0.000, 0.000, 0.000, 23:35:27.707
170, -657.16, -1156.40, -326.63, -225.26, 0.000, 0.000, 0.000, 23:35:27.707
171, -747.53, -1192.01, -321.91, -229.86, 0.000, 0.000, 0.000, 23:35:27.708
172, -809.32, -1194.68, -338.08, -237.87, 0.000, 0.000, 0.000, 23:35:27.708
175, -864.67, -1201.96, -360.56, -259.82, 0.000, 0.000, 0.000, 23:35:27.737
176, -910.82, -1224.25, -382.43, -265.52, 0.000, 0.000, 0.000, 23:35:27.737
177, -954.60, -1236.28, -376.09, -262.75, 0.000, 0.000, 0.000, 23:35:27.738
178, -965.12, -1214.21, -366.86, -258.73, 0.000, 0.000, 0.000, 23:35:27.738
181, -986.37, -1219.17, -367.31, -263.67, 0.000, 0.000, 0.000, 23:35:27.767
182, -983.49, -1208.76, -381.07, -276.78, 0.000, 0.000, 0.000, 23:35:27.767
183, -995.25, -1220.36, -382.72, -272.32, 0.000, 0.000, 0.000, 23:35:27.768
184, -999.25, -1216.80, -377.29, -272.03, 0.000, 0.000, 0.000, 23:35:27.768
187, -1001.19, -1216.72, -359.31, -265.69, 0.000, 0.000, 0.000, 23:35:27.796
188, -1021.86, -1230.18, -363.26, -275.70, 0.000, 0.000, 0.000, 23:35:27.797
189, -1029.78, -1232.79, -382.79, -278.43, 0.000, 0.000, 0.000, 23:35:27.826
190, -1029.45, -1225.64, -363.32, -255.99, 0.000, 0.000, 0.000, 23:35:27.827
193, -1030.39, -1224.41, -368.42, -256.28, 0.000, 0.000, 0.000, 23:35:27.828
194, -1022.65, -1209.42, -354.99, -245.24, 0.000, 0.000, 0.000, 23:35:27.828
195, -1048.33, -1228.15, -380.63, -279.10, 0.000, 0.000, 0.000, 23:35:27.857
196, -1046.29, -1222.69, -387.69, -276.09, 0.000, 0.000, 0.000, 23:35:27.857
199, -1006.51, -1151.72, -395.68, -279.28, 0.000, 0.000, 0.000, 23:35:27.858
200, -1099.36, -1303.98, -383.86, -264.47, 0.000, 0.000, 0.000, 23:35:27.858
0, -881.62, -1087.12, -392.28, -255.04, 0.000, 0.000, 0.000, 23:35:27.887
5, -682.68, -914.29, -367.71, -221.71, 0.000, 0.000, 0.000, 23:35:27.888
6, -678.26, -866.53, -349.57, -210.05, 0.000, 0.000, 0.000, 23:35:27.888
7, -781.56, -918.40, -370.95, -234.31, 0.000, 0.000, 0.000, 23:35:27.917
8, -629.90, -788.02, -388.70, -248.61, 0.000, 0.000, 0.000, 23:35:27.917
11, -559.44, -684.94, -375.55, -239.47, 0.000, 0.000, 0.000, 23:35:27.918
12, -616.14, -792.97, -403.05, -266.59, 0.000, 0.000, 0.000, 23:35:27.918
17, -781.79, -979.43, -443.17, -316.09, 0.000, 0.000, 0.000, 23:35:27.947
18, -702.74, -894.09, -456.77, -321.59, 0.000, 0.000, 0.000, 23:35:27.947
19, -765.85, -985.57, -440.43, -301.39, 0.000, 0.000, 0.000, 23:35:27.947
20, -783.81, -1000.06, -441.06, -306.78, 0.000, 0.000, 0.000, 23:35:27.947
23, -905.41, -1106.67, -443.33, -319.74, 0.000, 0.000, 0.000, 23:35:27.977
24, -847.79, -1052.21, -453.78, -330.15, 0.000, 0.000, 0.000, 23:35:27.977
25, -833.32, -1039.44, -440.54, -308.64, 0.000, 0.000, 0.000, 23:35:27.978
26, -891.54, -1123.97, -445.32, -316.25, 0.000, 0.000, 0.000, 23:35:27.978
29, -880.36, -1095.31, -445.42, -305.84, 0.000, 0.000, 0.000, 23:35:28.007
30, -880.03, -1098.87, -432.05, -302.12, 0.000, 0.000, 0.000, 23:35:28.008
31, -880.47, -1103.51, -453.63, -324.41, 0.000, 0.000, 0.000, 23:35:28.008
32, -826.01, -1061.89, -445.51, -306.88, 0.000, 0.000, 0.000, 23:35:28.008
35, -840.17, -1073.28, -447.90, -308.29, 0.000, 0.000, 0.000, 23:35:28.037
36, -854.03, -1115.48, -430.28, -286.95, 0.000, 0.000, 0.000, 23:35:28.037
37, -847.63, -1123.26, -448.05, -307.86, 0.000, 0.000, 0.000, 23:35:28.038
38, -837.34, -1118.92, -455.56, -308.60, 0.000, 0.000, 0.000, 23:35:28.038
41, -850.49, -1140.65, -478.40, -324.34, 0.000, 0.000, 0.000, 23:35:28.067
42, -866.40, -1179.04, -480.92, -318.17, 0.000, 0.000, 0.000, 23:35:28.067
43, -877.69, -1194.29, -460.08, -308.33, 0.000, 0.000, 0.000, 23:35:28.068
44, -896.84, -1231.03, -453.33, -310.43, 0.000, 0.000, 0.000, 23:35:28.068
47, -935.19, -1269.20, -462.41, -326.61, 0.000, 0.000, 0.000, 23:35:28.097
48, -978.57, -1300.78, -473.71, -334.94, 0.000, 0.000, 0.000, 23:35:28.097
49, -1023.73, -1324.43, -470.57, -321.94, 0.000, 0.000, 0.000, 23:35:28.098
50, -1078.77, -1327.62, -467.40, -328.83, 0.000, 0.000, 0.000, 23:35:28.098
53, -1143.95, -1338.24, -458.98, -321.03, 0.000, 0.000, 0.000, 23:35:28.127
54, -1162.69, -1317.23, -460.05, -321.84, 0.000, 0.000, 0.000, 23:35:28.127
55, -1209.47, -1321.75, -472.57, -319.69, 0.000, 0.000, 0.000, 23:35:28.127
56, -1224.31, -1310.80, -459.32, -310.89, 0.000, 0.000, 0.000, 23:35:28.127
59, -1227.58, -1305.86, -448.01, -299.95, 0.000, 0.000, 0.000, 23:35:28.156
60, -1203.71, -1285.93, -437.07, -296.32, 0.000, 0.000, 0.000, 23:35:28.156
61, -1180.82, -1273.94, -451.69, -305.14, 0.000, 0.000, 0.000, 23:35:28.158
62, -1184.62, -1276.66, -461.84, -318.18, 0.000, 0.000, 0.000, 23:35:28.158
65, -1169.38, -1264.93, -473.05, -323.59, 0.000, 0.000, 0.000, 23:35:28.187
66, -1153.46, -1258.76, -460.29, -305.09, 0.000, 0.000, 0.000, 23:35:28.187
67, -1135.58, -1248.25, -461.67, -320.68, 0.000, 0.000, 0.000, 23:35:28.188
68, -1123.60, -1250.06, -483.20, -339.92, 0.000, 0.000, 0.000, 23:35:28.188
71, -1089.87, -1230.24, -485.58, -337.37, 0.000, 0.000, 0.000, 23:35:28.216
72, -1068.10, -1220.70, -474.55, -320.31, 0.000, 0.000, 0.000, 23:35:28.216
73, -1070.36, -1222.58, -481.79, -337.85, 0.000, 0.000, 0.000, 23:35:28.218
74, -1065.41, -1219.34, -489.09, -347.05, 0.000, 0.000, 0.000, 23:35:28.218
77, -1029.53, -1182.95, -472.11, -343.44, 0.000, 0.000, 0.000, 23:35:28.246
78, -1078.55, -1265.24, -533.72, -395.88, 0.000, 0.000, 0.000, 23:35:28.246
79, -1094.70, -1261.96, -518.18, -381.21, 0.000, 0.000, 0.000, 23:35:28.247
80, -1062.49, -1288.67, -511.77, -380.33, 0.000, 0.000, 0.000, 23:35:28.247
83, -1100.20, -1299.83, -524.23, -400.82, 0.000, 0.000, 0.000, 23:35:28.276
84, -994.80, -1133.73, -519.21, -404.28, 0.000, 0.000, 0.000, 23:35:28.277
85, -1051.83, -1283.54, -526.13, -399.35, 0.000, 0.000, 0.000, 23:35:28.278
86, -1007.91, -1230.06, -481.99, -358.72, 0.000, 0.000, 0.000, 23:35:28.278
89, -1059.05, -1254.40, -476.52, -357.67, 0.000, 0.000, 0.000, 23:35:28.306
90, -1000.39, -1151.01, -455.18, -348.79, 0.000, 0.000, 0.000, 23:35:28.307
91, -863.20, -1098.43, -456.71, -348.85, 0.000, 0.000, 0.000, 23:35:28.307
92, -964.19, -1097.03, -444.83, -339.79, 0.000, 0.000, 0.000, 23:35:28.307
95, -983.30, -1113.17, -448.24, -339.58, 0.000, 0.000, 0.000, 23:35:28.336
96, -908.91, -1075.05, -436.81, -331.47, 0.000, 0.000, 0.000, 23:35:28.337
97, -955.03, -1109.49, -422.66, -324.33, 0.000, 0.000, 0.000, 23:35:28.338
98, -965.75, -1175.37, -460.87, -356.01, 0.000, 0.000, 0.000, 23:35:28.338
101, -908.60, -1144.98, -460.58, -355.95, 0.000, 0.000, 0.000, 23:35:28.366
102, -926.16, -1180.61, -479.75, -365.38, 0.000, 0.000, 0.000, 23:35:28.366
103, -948.50, -1196.69, -454.34, -346.99, 0.000, 0.000, 0.000, 23:35:28.368
104, -988.87, -1266.46, -480.91, -379.10, 0.000, 0.000, 0.000, 23:35:28.368
107, -972.85, -1267.09, -475.53, -380.72, 0.000, 0.000, 0.000, 23:35:28.397
108, -959.17, -1213.86, -464.42, -359.13, 0.000, 0.000, 0.000, 23:35:28.397
109, -958.70, -1293.80, -468.15, -364.59, 0.000, 0.000, 0.000, 23:35:28.398
110, -984.64, -1291.77, -453.01, -356.15, 0.000, 0.000, 0.000, 23:35:28.398
113, -950.84, -1234.24, -439.09, -346.20, 0.000, 0.000, 0.000, 23:35:28.427
114, -926.90, -1222.34, -460.58, -371.91, 0.000, 0.000, 0.000, 23:35:28.427
115, -1049.38, -1319.67, -467.97, -377.84, 0.000, 0.000, 0.000, 23:35:28.428
116, -996.10, -1270.55, -463.10, -367.46, 0.000, 0.000, 0.000, 23:35:28.428
119, -1043.30, -1326.74, -465.29, -369.52, 0.000, 0.000, 0.000, 23:35:28.457
120, -994.18, -1267.57, -454.61, -365.88, 0.000, 0.000, 0.000, 23:35:28.457
121, -979.35, -1276.31, -460.35, -363.62, 0.000, 0.000, 0.000, 23:35:28.458
122, -942.99, -1235.53, -444.65, -340.26, 0.000, 0.000, 0.000, 23:35:28.458
125, -970.46, -1272.24, -456.45, -339.16, 0.000, 0.000, 0.000, 23:35:28.487
126, -977.94, -1255.38, -445.31, -334.91, 0.000, 0.000, 0.000, 23:35:28.487
127, -915.97, -1187.81, -429.97, -321.39, 0.000, 0.000, 0.000, 23:35:28.487
128, -912.45, -1230.19, -462.37, -355.16, 0.000, 0.000, 0.000, 23:35:28.487
131, -822.91, -1189.80, -466.85, -356.26, 0.000, 0.000, 0.000, 23:35:28.517
132, -972.13, -1279.80, -485.68, -364.54, 0.000, 0.000, 0.000, 23:35:28.517
133, -953.80, -1288.23, -480.20, -364.04, 0.000, 0.000, 0.000, 23:35:28.518
134, -916.31, -1255.22, -479.50, -366.79, 0.000, 0.000, 0.000, 23:35:28.518
137, -998.68, -1404.74, -500.59, -397.80, 0.000, 0.000, 0.000, 23:35:28.547
138, -971.15, -1360.79, -518.46, -407.49, 0.000, 0.000, 0.000, 23:35:28.547
139, -1058.41, -1405.89, -512.38, -394.85, 0.000, 0.000, 0.000, 23:35:28.548
140, -999.32, -1374.69, -500.63, -392.73, 0.000, 0.000, 0.000, 23:35:28.548
143, -974.32, -1341.64, -475.39, -376.94, 0.000, 0.000, 0.000, 23:35:28.577
144, -945.42, -1321.73, -457.54, -358.00, 0.000, 0.000, 0.000, 23:35:28.577
145, -1009.08, -1370.36, -477.09, -372.68, 0.000, 0.000, 0.000, 23:35:28.578
146, -950.77, -1325.25, -438.36, -333.21, 0.000, 0.000, 0.000, 23:35:28.578
149, -953.85, -1358.76, -439.06, -326.00, 0.000, 0.000, 0.000, 23:35:28.607
150, -960.10, -1363.30, -428.36, -330.84, 0.000, 0.000, 0.000, 23:35:28.607
151, -954.04, -1368.33, -452.81, -345.79, 0.000, 0.000, 0.000, 23:35:28.608
152, -953.98, -1374.54, -450.10, -336.77, 0.000, 0.000, 0.000, 23:35:28.608
155, -979.75, -1401.12, -461.76, -336.28, 0.000, 0.000, 0.000, 23:35:28.637
156, -1030.54, -1439.69, -461.57, -335.14, 0.000, 0.000, 0.000, 23:35:28.637
157, -1041.25, -1458.11, -450.53, -328.46, 0.000, 0.000, 0.000, 23:35:28.638
158, -1086.00, -1491.63, -472.09, -336.54, 0.000, 0.000, 0.000, 23:35:28.638
161, -1148.35, -1493.71, -477.07, -326.98, 0.000, 0.000, 0.000, 23:35:28.666
162, -1172.40, -1501.27, -470.69, -321.12, 0.000, 0.000, 0.000, 23:35:28.666
163, -1212.76, -1505.91, -463.11, -316.65, 0.000, 0.000, 0.000, 23:35:28.667
164, -1261.59, -1516.01, -472.89, -335.95, 0.000, 0.000, 0.000, 23:35:28.667
167, -1288.18, -1526.46, -487.52, -355.47, 0.000, 0.000, 0.000, 23:35:28.696
168, -1291.74, -1521.93, -499.89, -361.26, 0.000, 0.000, 0.000, 23:35:28.696
169, -1309.35, -1528.40, -504.40, -361.25, 0.000, 0.000, 0.000, 23:35:28.697
170, -1317.67, -1525.48, -506.14, -374.67, 0.000, 0.000, 0.000, 23:35:28.697
173, -1310.70, -1526.22, -496.48, -373.53, 0.000, 0.000, 0.000, 23:35:28.727
174, -1297.25, -1515.93, -495.40, -371.17, 0.000, 0.000, 0.000, 23:35:28.727
175, -1290.13, -1521.02, -507.87, -372.64, 0.000, 0.000, 0.000, 23:35:28.728
176, -1282.26, -1518.89, -483.55, -360.08, 0.000, 0.000, 0.000, 23:35:28.728
179, -1275.64, -1518.66, -469.02, -346.25, 0.000, 0.000, 0.000, 23:35:28.757
180, -1276.42, -1521.96, -475.15, -357.91, 0.000, 0.000, 0.000, 23:35:28.757
181, -1257.67, -1519.62, -485.64, -364.02, 0.000, 0.000, 0.000, 23:35:28.758
182, -1233.40, -1504.29, -470.34, -337.30, 0.000, 0.000, 0.000, 23:35:28.758
185, -1231.69, -1514.20, -477.32, -334.54, 0.000, 0.000, 0.000, 23:35:28.786
186, -1240.59, -1524.11, -482.74, -347.72, 0.000, 0.000, 0.000, 23:35:28.786
187, -1216.78, -1510.25, -459.58, -334.66, 0.000, 0.000, 0.000, 23:35:28.789
188, -1197.84, -1496.61, -466.60, -332.73, 0.000, 0.000, 0.000, 23:35:28.789
191, -1201.08, -1505.28, -490.66, -349.76, 0.000, 0.000, 0.000, 23:35:28.817
192, -1195.00, -1503.39, -479.67, -334.04, 0.000, 0.000, 0.000, 23:35:28.818
193, -1210.07, -1520.87, -479.74, -343.77, 0.000, 0.000, 0.000, 23:35:28.818
194, -1198.41, -1506.62, -466.78, -336.33, 0.000, 0.000, 0.000, 23:35:28.818
197, -1197.59, -1504.50, -470.49, -340.59, 0.000, 0.000, 0.000, 23:35:28.847
198, -1191.85, -1503.82, -479.68, -348.67, 0.000, 0.000, 0.000, 23:35:28.847
199, -1192.74, -1504.48, -459.67, -329.41, 0.000, 0.000, 0.000, 23:35:28.849
200, -1183.65, -1494.32, -441.63, -316.46, 0.000, 0.000, 0.000, 23:35:28.849
1, -1181.66, -1486.97, -434.71, -308.68, 0.000, 0.000, 0.000, 23:35:28.878
2, -1192.47, -1507.30, -436.69, -315.75, 0.000, 0.000, 0.000, 23:35:28.878
3, -1192.14, -1507.25, -439.28, -328.58, 0.000, 0.000, 0.000, 23:35:28.878
4, -1200.59, -1517.41, -451.76, -326.25, 0.000, 0.000, 0.000, 23:35:28.879
7, -1204.30, -1519.42, -471.78, -347.37, 0.000, 0.000, 0.000, 23:35:28.906
8, -1211.53, -1526.60, -468.23, -334.19, 0.000, 0.000, 0.000, 23:35:28.906
9, -1197.91, -1510.10, -446.15, -325.55, 0.000, 0.000, 0.000, 23:35:28.907
10, -1207.11, -1524.39, -472.63, -353.61, 0.000, 0.000, 0.000, 23:35:28.907
13, -1218.68, -1530.20, -490.54, -377.67, 0.000, 0.000, 0.000, 23:35:28.937
14, -1196.76, -1513.80, -493.19, -369.96, 0.000, 0.000, 0.000, 23:35:28.937
15, -1242.23, -1556.81, -507.26, -382.76, 0.000, 0.000, 0.000, 23:35:28.938
16, -1182.35, -1528.64, -486.26, -375.97, 0.000, 0.000, 0.000, 23:35:28.938
19, -1169.56, -1535.21, -482.79, -382.51, 0.000, 0.000, 0.000, 23:35:28.967
20, -1153.66, -1592.55, -494.38, -391.56, 0.000, 0.000, 0.000, 23:35:28.967
21, -1115.05, -1524.39, -489.82, -378.19, 0.000, 0.000, 0.000, 23:35:28.968
22, -1133.69, -1479.60, -468.07, -361.03, 0.000, 0.000, 0.000, 23:35:28.968
25, -1049.92, -1350.80, -450.32, -351.50, 0.000, 0.000, 0.000, 23:35:28.997
26, -939.97, -1279.12, -428.47, -339.96, 0.000, 0.000, 0.000, 23:35:28.997
27, -998.09, -1299.32, -448.69, -363.89, 0.000, 0.000, 0.000, 23:35:28.998
28, -839.28, -1151.94, -427.23, -335.45, 0.000, 0.000, 0.000, 23:35:28.998
31, -810.53, -1171.59, -408.66, -312.32, 0.000, 0.000, 0.000, 23:35:29.026
32, -882.28, -1196.96, -394.82, -306.15, 0.000, 0.000, 0.000, 23:35:29.027
33, -796.96, -1191.18, -405.54, -317.69, 0.000, 0.000, 0.000, 23:35:29.028
34, -847.65, -1193.59, -401.12, -308.99, 0.000, 0.000, 0.000, 23:35:29.028
37, -819.95, -1181.19, -415.87, -324.68, 0.000, 0.000, 0.000, 23:35:29.057
38, -932.49, -1256.37, -408.82, -308.67, 0.000, 0.000, 0.000, 23:35:29.057
39, -935.89, -1291.62, -407.18, -316.80, 0.000, 0.000, 0.000, 23:35:29.058
40, -922.06, -1259.22, -428.39, -332.86, 0.000, 0.000, 0.000, 23:35:29.058
43, -889.88, -1200.45, -441.73, -350.05, 0.000, 0.000, 0.000, 23:35:29.087
44, -929.36, -1271.15, -450.71, -349.54, 0.000, 0.000, 0.000, 23:35:29.087
45, -913.55, -1277.11, -454.03, -352.98, 0.000, 0.000, 0.000, 23:35:29.088
46, -961.17, -1265.48, -430.59, -336.91, 0.000, 0.000, 0.000, 23:35:29.088
49, -938.22, -1199.48, -421.36, -330.08, 0.000, 0.000, 0.000, 23:35:29.117
50, -948.49, -1227.06, -438.37, -352.02, 0.000, 0.000, 0.000, 23:35:29.117
51, -951.09, -1251.22, -440.87, -351.14, 0.000, 0.000, 0.000, 23:35:29.118
52, -971.86, -1252.48, -437.85, -352.95, 0.000, 0.000, 0.000, 23:35:29.118
55, -844.90, -1101.40, -425.37, -342.95, 0.000, 0.000, 0.000, 23:35:29.177
56, -978.37, -1251.58, -428.14, -357.85, 0.000, 0.000, 0.000, 23:35:29.177
57, -908.71, -1193.37, -444.73, -360.92, 0.000, 0.000, 0.000, 23:35:29.178
58, -926.00, -1205.84, -430.48, -346.13, 0.000, 0.000, 0.000, 23:35:29.179
61, -964.58, -1232.46, -435.60, -347.42, 0.000, 0.000, 0.000, 23:35:29.208
62, -880.14, -1150.92, -400.12, -313.28, 0.000, 0.000, 0.000, 23:35:29.208
63, -940.46, -1223.01, -425.65, -343.13, 0.000, 0.000, 0.000, 23:35:29.208
64, -935.00, -1188.15, -440.42, -349.61, 0.000, 0.000, 0.000, 23:35:29.208
67, -891.44, -1172.40, -476.69, -380.53, 0.000, 0.000, 0.000, 23:35:29.237
68, -853.17, -1096.83, -436.59, -340.55, 0.000, 0.000, 0.000, 23:35:29.237
69, -928.21, -1147.35, -442.31, -360.22, 0.000, 0.000, 0.000, 23:35:29.237
70, -880.85, -1143.03, -460.47, -373.23, 0.000, 0.000, 0.000, 23:35:29.238
73, -1053.00, -1308.69, -477.06, -403.49, 0.000, 0.000, 0.000, 23:35:29.266
74, -959.58, -1238.59, -479.11, -393.57, 0.000, 0.000, 0.000, 23:35:29.266
79, -884.53, -1158.95, -466.35, -382.08, 0.000, 0.000, 0.000, 23:35:29.267
80, -946.06, -1204.89, -465.09, -380.47, 0.000, 0.000, 0.000, 23:35:29.268
85, -921.10, -1204.23, -447.86, -366.87, 0.000, 0.000, 0.000, 23:35:29.297
86, -915.87, -1204.03, -448.57, -376.05, 0.000, 0.000, 0.000, 23:35:29.297
87, -901.85, -1162.25, -442.83, -366.37, 0.000, 0.000, 0.000, 23:35:29.298
88, -942.93, -1202.07, -451.90, -370.81, 0.000, 0.000, 0.000, 23:35:29.298
91, -844.35, -1088.58, -447.74, -358.27, 0.000, 0.000, 0.000, 23:35:29.327
92, -902.87, -1138.06, -424.31, -340.19, 0.000, 0.000, 0.000, 23:35:29.327
93, -864.39, -1092.07, -432.71, -346.88, 0.000, 0.000, 0.000, 23:35:29.327
94, -890.89, -1148.97, -426.74, -334.68, 0.000, 0.000, 0.000, 23:35:29.327
97, -909.15, -1128.74, -456.36, -364.28, 0.000, 0.000, 0.000, 23:35:29.357
98, -932.53, -1204.76, -451.53, -361.47, 0.000, 0.000, 0.000, 23:35:29.357
99, -968.13, -1205.29, -443.08, -362.39, 0.000, 0.000, 0.000, 23:35:29.358
100, -833.08, -1079.68, -446.24, -363.52, 0.000, 0.000, 0.000, 23:35:29.358
103, -763.22, -1019.40, -450.54, -373.06, 0.000, 0.000, 0.000, 23:35:29.387
104, -764.89, -1034.47, -453.31, -366.69, 0.000, 0.000, 0.000, 23:35:29.387
105, -720.69, -965.02, -448.29, -361.52, 0.000, 0.000, 0.000, 23:35:29.388
106, -741.95, -1005.30, -438.03, -363.24, 0.000, 0.000, 0.000, 23:35:29.388
109, -815.41, -1050.04, -431.20, -362.92, 0.000, 0.000, 0.000, 23:35:29.417
110, -821.19, -1051.67, -456.26, -389.26, 0.000, 0.000, 0.000, 23:35:29.417
111, -717.21, -999.59, -437.02, -361.01, 0.000, 0.000, 0.000, 23:35:29.418
112, -883.32, -1093.05, -440.81, -377.82, 0.000, 0.000, 0.000, 23:35:29.418
115, -919.38, -1117.61, -430.38, -369.62, 0.000, 0.000, 0.000, 23:35:29.447
116, -852.19, -1082.43, -447.16, -393.46, 0.000, 0.000, 0.000, 23:35:29.447
117, -888.86, -1117.54, -445.81, -391.91, 0.000, 0.000, 0.000, 23:35:29.448
118, -938.57, -1141.46, -442.77, -375.56, 0.000, 0.000, 0.000, 23:35:29.448
121, -956.46, -1157.32, -448.20, -371.72, 0.000, 0.000, 0.000, 23:35:29.477
122, -952.94, -1148.38, -442.01, -369.59, 0.000, 0.000, 0.000, 23:35:29.477
123, -919.04, -1123.59, -426.13, -361.12, 0.000, 0.000, 0.000, 23:35:29.478
124, -942.42, -1140.92, -442.41, -370.86, 0.000, 0.000, 0.000, 23:35:29.478
127, -956.59, -1171.03, -474.01, -395.98, 0.000, 0.000, 0.000, 23:35:29.507
128, -934.24, -1108.93, -452.66, -371.23, 0.000, 0.000, 0.000, 23:35:29.507
129, -930.10, -1145.13, -450.38, -373.53, 0.000, 0.000, 0.000, 23:35:29.508
130, -934.20, -1152.93, -468.86, -392.63, 0.000, 0.000, 0.000, 23:35:29.508
133, -939.39, -1166.27, -486.94, -414.92, 0.000, 0.000, 0.000, 23:35:29.537
134, -942.38, -1175.42, -486.39, -408.43, 0.000, 0.000, 0.000, 23:35:29.537
135, -958.52, -1184.91, -480.24, -402.82, 0.000, 0.000, 0.000, 23:35:29.538
136, -948.97, -1188.47, -472.83, -402.91, 0.000, 0.000, 0.000, 23:35:29.539
139, -974.14, -1205.83, -467.66, -405.60, 0.000, 0.000, 0.000, 23:35:29.567
140, -1002.93, -1246.40, -491.51, -426.66, 0.000, 0.000, 0.000, 23:35:29.567
141, -1032.52, -1271.08, -499.21, -426.63, 0.000, 0.000, 0.000, 23:35:29.568
142, -1085.01, -1304.30, -504.13, -433.03, 0.000, 0.000, 0.000, 23:35:29.568
145, -1122.69, -1310.66, -497.98, -427.26, 0.000, 0.000, 0.000, 23:35:29.597
146, -1163.98, -1317.64, -501.38, -438.28, 0.000, 0.000, 0.000, 23:35:29.597
147, -1206.19, -1331.40, -523.80, -456.03, 0.000, 0.000, 0.000, 23:35:29.598
148, -1240.32, -1339.44, -523.25, -448.91, 0.000, 0.000, 0.000, 23:35:29.598
151, -1265.95, -1355.79, -533.09, -453.29, 0.000, 0.000, 0.000, 23:35:29.627
152, -1267.00, -1350.92, -520.03, -439.55, 0.000, 0.000, 0.000, 23:35:29.627
153, -1268.87, -1351.77, -524.17, -455.27, 0.000, 0.000, 0.000, 23:35:29.628
154, -1273.44, -1360.03, -556.32, -471.05, 0.000, 0.000, 0.000, 23:35:29.628
157, -1269.34, -1358.81, -566.15, -479.81, 0.000, 0.000, 0.000, 23:35:29.657
158, -1266.47, -1370.98, -560.66, -467.31, 0.000, 0.000, 0.000, 23:35:29.657
159, -1239.24, -1356.43, -537.49, -463.08, 0.000, 0.000, 0.000, 23:35:29.658
160, -1220.38, -1343.68, -552.49, -473.64, 0.000, 0.000, 0.000, 23:35:29.658
163, -1202.55, -1332.02, -546.54, -475.71, 0.000, 0.000, 0.000, 23:35:29.687
164, -1194.16, -1332.48, -554.35, -473.25, 0.000, 0.000, 0.000, 23:35:29.687
165, -1192.05, -1340.63, -553.94, -474.94, 0.000, 0.000, 0.000, 23:35:29.688
166, -1161.20, -1321.08, -536.74, -464.58, 0.000, 0.000, 0.000, 23:35:29.688
169, -1138.47, -1304.90, -522.99, -455.62, 0.000, 0.000, 0.000, 23:35:29.717
170, -1130.68, -1304.02, -539.65, -475.25, 0.000, 0.000, 0.000, 23:35:29.717
171, -1131.96, -1319.15, -542.72, -468.33, 0.000, 0.000, 0.000, 23:35:29.718
172, -1132.93, -1324.58, -532.63, -464.93, 0.000, 0.000, 0.000, 23:35:29.719
175, -1135.24, -1327.43, -522.16, -453.37, 0.000, 0.000, 0.000, 23:35:29.747
176, -1124.08, -1319.54, -513.14, -447.90, 0.000, 0.000, 0.000, 23:35:29.748
177, -1120.12, -1319.70, -527.22, -456.45, 0.000, 0.000, 0.000, 23:35:29.748
178, -1132.60, -1338.55, -534.43, -460.88, 0.000, 0.000, 0.000, 23:35:29.748
181, -1137.83, -1342.05, -538.24, -452.82, 0.000, 0.000, 0.000, 23:35:29.776
182, -1124.60, -1333.38, -516.93, -439.67, 0.000, 0.000, 0.000, 23:35:29.777
183, -1100.53, -1306.92, -501.71, -426.98, 0.000, 0.000, 0.000, 23:35:29.778
184, -1112.35, -1323.84, -523.62, -443.43, 0.000, 0.000, 0.000, 23:35:29.778
187, -1093.34, -1300.12, -521.93, -431.90, 0.000, 0.000, 0.000, 23:35:29.807
188, -1088.16, -1304.55, -514.88, -413.94, 0.000, 0.000, 0.000, 23:35:29.807
189, -1104.04, -1320.92, -525.02, -433.48, 0.000, 0.000, 0.000, 23:35:29.808
190, -1110.54, -1339.55, -547.85, -459.23, 0.000, 0.000, 0.000, 23:35:29.808
193, -1110.19, -1328.61, -562.71, -469.57, 0.000, 0.000, 0.000, 23:35:29.837
194, -1107.85, -1330.83, -561.82, -467.55, 0.000, 0.000, 0.000, 23:35:29.837
195, -1097.65, -1329.50, -546.66, -453.72, 0.000, 0.000, 0.000, 23:35:29.838
196, -1096.46, -1324.38, -552.77, -466.38, 0.000, 0.000, 0.000, 23:35:29.838
199, -1102.75, -1330.97, -546.95, -468.26, 0.000, 0.000, 0.000, 23:35:29.867
200, -1085.76, -1316.25, -544.54, -462.53, 0.000, 0.000, 0.000, 23:35:29.868
0, -925.88, -1088.96, -416.04, -257.78, 0.000, 0.000, 0.000, 23:35:29.869
5, -899.85, -1063.45, -404.94, -256.93, 0.000, 0.000, 0.000, 23:35:29.897
6, -874.63, -1050.13, -408.93, -255.36, 0.000, 0.000, 0.000, 23:35:29.897
7, -872.06, -1051.38, -404.53, -250.03, 0.000, 0.000, 0.000, 23:35:29.898
8, -862.72, -1036.19, -391.13, -244.46, 0.000, 0.000, 0.000, 23:35:29.898
11, -861.06, -1047.07, -374.67, -231.11, 0.000, 0.000, 0.000, 23:35:29.927
12, -771.44, -963.03, -352.97, -217.02, 0.000, 0.000, 0.000, 23:35:29.927
13, -823.77, -1023.12, -376.10, -231.45, 0.000, 0.000, 0.000, 23:35:29.931
14, -883.14, -1051.26, -376.15, -229.45, 0.000, 0.000, 0.000, 23:35:29.931
17, -901.64, -1062.18, -371.89, -217.70, 0.000, 0.000, 0.000, 23:35:29.956
18, -917.20, -1058.44, -365.78, -216.15, 0.000, 0.000, 0.000, 23:35:29.956
19, -897.65, -1090.86, -385.18, -231.66, 0.000, 0.000, 0.000, 23:35:29.958
20, -870.95, -1054.31, -367.25, -211.73, 0.000, 0.000, 0.000, 23:35:29.958
23, -822.35, -1070.12, -394.84, -226.02, 0.000, 0.000, 0.000, 23:35:29.987
24, -900.31, -1119.01, -392.24, -230.40, 0.000, 0.000, 0.000, 23:35:29.987
25, -743.94, -1002.86, -371.20, -216.82, 0.000, 0.000, 0.000, 23:35:29.988
26, -799.55, -1021.33, -395.36, -234.31, 0.000, 0.000, 0.000, 23:35:29.988
29, -781.89, -1031.31, -402.62, -245.36, 0.000, 0.000, 0.000, 23:35:30.016
30, -847.68, -1086.92, -420.06, -256.76, 0.000, 0.000, 0.000, 23:35:30.017
31, -773.18, -1021.67, -376.12, -216.17, 0.000, 0.000, 0.000, 23:35:30.018
32, -857.38, -1096.32, -395.49, -241.88, 0.000, 0.000, 0.000, 23:35:30.018
35, -896.23, -1120.29, -398.45, -247.76, 0.000, 0.000, 0.000, 23:35:30.047
36, -832.63, -1071.15, -425.78, -269.97, 0.000, 0.000, 0.000, 23:35:30.047
37, -862.59, -1145.32, -424.41, -261.05, 0.000, 0.000, 0.000, 23:35:30.048
38, -927.01, -1159.65, -421.05, -268.46, 0.000, 0.000, 0.000, 23:35:30.048
41, -1063.99, -1253.93, -398.41, -255.09, 0.000, 0.000, 0.000, 23:35:30.077
42, -1033.94, -1223.60, -414.66, -271.11, 0.000, 0.000, 0.000, 23:35:30.077
43, -1098.08, -1306.06, -442.66, -291.98, 0.000, 0.000, 0.000, 23:35:30.078
44, -1083.23, -1281.76, -427.27, -270.99, 0.000, 0.000, 0.000, 23:35:30.078
47, -1026.37, -1244.22, -424.16, -261.13, 0.000, 0.000, 0.000, 23:35:30.107
48, -1083.77, -1261.67, -398.44, -240.21, 0.000, 0.000, 0.000, 23:35:30.108
49, -1054.63, -1257.09, -429.19, -266.45, 0.000, 0.000, 0.000, 23:35:30.108
50, -1127.60, -1322.68, -438.73, -271.34, 0.000, 0.000, 0.000, 23:35:30.109
53, -1052.75, -1280.14, -409.69, -239.93, 0.000, 0.000, 0.000, 23:35:30.137
54, -1107.24, -1292.26, -407.85, -238.33, 0.000, 0.000, 0.000, 23:35:30.137
55, -1091.60, -1295.07, -418.55, -252.96, 0.000, 0.000, 0.000, 23:35:30.138
56, -1081.36, -1307.22, -441.90, -263.22, 0.000, 0.000, 0.000, 23:35:30.138
59, -1097.40, -1320.28, -458.48, -281.75, 0.000, 0.000, 0.000, 23:35:30.167
60, -1045.51, -1278.57, -439.33, -257.67, 0.000, 0.000, 0.000, 23:35:30.167
61, -1157.18, -1334.20, -437.02, -265.17, 0.000, 0.000, 0.000, 23:35:30.168
62, -1118.09, -1326.65, -446.22, -274.19, 0.000, 0.000, 0.000, 23:35:30.168
65, -1104.26, -1351.94, -446.77, -281.33, 0.000, 0.000, 0.000, 23:35:30.197
66, -1085.05, -1314.05, -455.16, -282.76, 0.000, 0.000, 0.000, 23:35:30.198
67, -1111.27, -1330.77, -458.02, -285.89, 0.000, 0.000, 0.000, 23:35:30.198
68, -1086.09, -1326.43, -453.19, -282.34, 0.000, 0.000, 0.000, 23:35:30.198
71, -1117.71, -1342.69, -434.86, -273.30, 0.000, 0.000, 0.000, 23:35:30.226
72, -1071.37, -1297.38, -418.04, -262.92, 0.000, 0.000, 0.000, 23:35:30.226
73, -1060.63, -1309.18, -417.29, -253.90, 0.000, 0.000, 0.000, 23:35:30.228
74, -1082.92, -1296.97, -401.21, -240.40, 0.000, 0.000, 0.000, 23:35:30.228
77, -1121.97, -1294.72, -385.44, -215.69, 0.000, 0.000, 0.000, 23:35:30.256
78, -1076.78, -1273.49, -388.63, -227.20, 0.000, 0.000, 0.000, 23:35:30.257
79, -1030.08, -1262.02, -403.73, -242.65, 0.000, 0.000, 0.000, 23:35:30.257
80, -1130.65, -1321.60, -403.72, -241.32, 0.000, 0.000, 0.000, 23:35:30.258
83, -1132.20, -1324.47, -410.77, -241.00, 0.000, 0.000, 0.000, 23:35:30.291
84, -1059.48, -1265.60, -380.66, -211.82, 0.000, 0.000, 0.000, 23:35:30.293
85, -1123.29, -1332.34, -408.75, -247.83, 0.000, 0.000, 0.000, 23:35:30.304
86, -1174.95, -1353.58, -427.84, -262.52, 0.000, 0.000, 0.000, 23:35:30.304
89, -1175.08, -1331.42, -420.32, -249.50, 0.000, 0.000, 0.000, 23:35:30.316
90, -1139.53, -1293.94, -415.64, -247.14, 0.000, 0.000, 0.000, 23:35:30.316
91, -1194.99, -1357.53, -427.12, -257.45, 0.000, 0.000, 0.000, 23:35:30.318
92, -1137.88, -1305.71, -419.71, -257.29, 0.000, 0.000, 0.000, 23:35:30.318
95, -1167.03, -1325.32, -435.95, -277.04, 0.000, 0.000, 0.000, 23:35:30.346
96, -1106.98, -1292.79, -439.92, -274.50, 0.000, 0.000, 0.000, 23:35:30.346
97, -1036.11, -1256.56, -419.25, -250.36, 0.000, 0.000, 0.000, 23:35:30.347
98, -1173.56, -1342.72, -425.73, -260.14, 0.000, 0.000, 0.000, 23:35:30.347
101, -1196.46, -1337.53, -409.98, -253.60, 0.000, 0.000, 0.000, 23:35:30.377
102, -1180.63, -1340.49, -420.88, -269.32, 0.000, 0.000, 0.000, 23:35:30.377
103, -1150.08, -1316.89, -408.94, -250.56, 0.000, 0.000, 0.000, 23:35:30.378
104, -1160.54, -1310.59, -385.03, -229.11, 0.000, 0.000, 0.000, 23:35:30.378
107, -1153.90, -1310.75, -348.08, -189.39, 0.000, 0.000, 0.000, 23:35:30.406
108, -1201.77, -1347.54, -373.85, -223.17, 0.000, 0.000, 0.000, 23:35:30.406
109, -1230.68, -1361.36, -393.59, -233.20, 0.000, 0.000, 0.000, 23:35:30.408
110, -1237.15, -1366.57, -385.85, -221.38, 0.000, 0.000, 0.000, 23:35:30.408
113, -1259.30, -1383.58, -399.77, -229.75, 0.000, 0.000, 0.000, 23:35:30.437
114, -1289.85, -1404.49, -383.43, -212.25, 0.000, 0.000, 0.000, 23:35:30.437
115, -1329.44, -1445.88, -395.80, -227.20, 0.000, 0.000, 0.000, 23:35:30.437
116, -1372.91, -1466.04, -416.22, -233.91, 0.000, 0.000, 0.000, 23:35:30.438
119, -1398.84, -1481.78, -424.94, -233.20, 0.000, 0.000, 0.000, 23:35:30.466
120, -1432.40, -1500.59, -435.12, -236.13, 0.000, 0.000, 0.000, 23:35:30.466
121, -1449.18, -1507.36, -427.05, -214.38, 0.000, 0.000, 0.000, 23:35:30.467
122, -1464.41, -1501.86, -432.01, -252.54, 0.000, 0.000, 0.000, 23:35:30.468
125, -1462.50, -1483.24, -403.78, -241.12, 0.000, 0.000, 0.000, 23:35:30.496
126, -1464.84, -1478.63, -427.93, -255.41, 0.000, 0.000, 0.000, 23:35:30.496
127, -1471.71, -1479.82, -429.01, -251.93, 0.000, 0.000, 0.000, 23:35:30.497
128, -1475.54, -1485.73, -437.35, -266.86, 0.000, 0.000, 0.000, 23:35:30.497
131, -1467.37, -1479.12, -424.65, -261.30, 0.000, 0.000, 0.000, 23:35:30.527
132, -1448.74, -1471.93, -422.72, -271.14, 0.000, 0.000, 0.000, 23:35:30.527
133, -1424.41, -1454.97, -426.42, -264.11, 0.000, 0.000, 0.000, 23:35:30.528
134, -1420.48, -1455.89, -422.74, -255.77, 0.000, 0.000, 0.000, 23:35:30.528
137, -1415.10, -1456.76, -420.59, -246.09, 0.000, 0.000, 0.000, 23:35:30.557
138, -1378.97, -1427.75, -389.94, -217.79, 0.000, 0.000, 0.000, 23:35:30.557
139, -1354.23, -1411.85, -374.04, -200.86, 0.000, 0.000, 0.000, 23:35:30.558
140, -1351.78, -1408.43, -382.66, -202.98, 0.000, 0.000, 0.000, 23:35:30.558
143, -1336.99, -1400.59, -385.62, -209.57, 0.000, 0.000, 0.000, 23:35:30.587
144, -1353.97, -1418.42, -404.66, -228.09, 0.000, 0.000, 0.000, 23:35:30.587
145, -1341.67, -1405.91, -393.04, -219.31, 0.000, 0.000, 0.000, 23:35:30.588
146, -1335.82, -1410.24, -404.35, -227.80, 0.000, 0.000, 0.000, 23:35:30.588
149, -1327.64, -1403.06, -387.38, -220.58, 0.000, 0.000, 0.000, 23:35:30.617
150, -1319.33, -1394.30, -395.69, -214.17, 0.000, 0.000, 0.000, 23:35:30.617
151, -1331.19, -1409.67, -400.37, -221.35, 0.000, 0.000, 0.000, 23:35:30.646
152, -1330.16, -1411.17, -393.98, -221.30, 0.000, 0.000, 0.000, 23:35:30.647
155, -1328.58, -1410.10, -391.26, -223.94, 0.000, 0.000, 0.000, 23:35:30.648
156, -1297.60, -1381.32, -365.32, -195.77, 0.000, 0.000, 0.000, 23:35:30.648
157, -1305.19, -1389.76, -375.24, -202.68, 0.000, 0.000, 0.000, 23:35:30.677
158, -1317.78, -1396.21, -376.95, -212.88, 0.000, 0.000, 0.000, 23:35:30.677
161, -1313.85, -1390.70, -359.92, -203.88, 0.000, 0.000, 0.000, 23:35:30.678
162, -1312.16, -1388.78, -354.46, -191.77, 0.000, 0.000, 0.000, 23:35:30.678
163, -1320.63, -1400.50, -390.39, -233.72, 0.000, 0.000, 0.000, 23:35:30.707
164, -1329.00, -1408.06, -388.86, -235.67, 0.000, 0.000, 0.000, 23:35:30.707
167, -1326.52, -1410.35, -384.48, -226.34, 0.000, 0.000, 0.000, 23:35:30.708
168, -1341.06, -1416.63, -389.80, -242.59, 0.000, 0.000, 0.000, 23:35:30.708
169, -1319.75, -1398.20, -381.61, -228.75, 0.000, 0.000, 0.000, 23:35:30.737
170, -1319.58, -1393.53, -375.74, -219.31, 0.000, 0.000, 0.000, 23:35:30.737
173, -1317.08, -1391.51, -389.47, -228.08, 0.000, 0.000, 0.000, 23:35:30.738
174, -1307.14, -1380.84, -371.90, -208.92, 0.000, 0.000, 0.000, 23:35:30.739
179, -1279.17, -1361.82, -358.14, -191.59, 0.000, 0.000, 0.000, 23:35:30.767
180, -1288.16, -1362.41, -366.03, -196.43, 0.000, 0.000, 0.000, 23:35:30.767
181, -1280.22, -1356.05, -354.99, -184.95, 0.000, 0.000, 0.000, 23:35:30.768
182, -1275.88, -1350.11, -352.54, -194.27, 0.000, 0.000, 0.000, 23:35:30.768
185, -1254.13, -1330.39, -331.43, -180.76, 0.000, 0.000, 0.000, 23:35:30.796
186, -1242.54, -1323.68, -334.88, -182.93, 0.000, 0.000, 0.000, 23:35:30.796
187, -1261.97, -1344.86, -351.92, -192.99, 0.000, 0.000, 0.000, 23:35:30.798
188, -1263.57, -1339.58, -335.30, -185.32, 0.000, 0.000, 0.000, 23:35:30.798
191, -1265.73, -1343.86, -338.60, -186.72, 0.000, 0.000, 0.000, 23:35:30.828
192, -1245.22, -1327.19, -327.70, -181.64, 0.000, 0.000, 0.000, 23:35:30.828
193, -1222.10, -1310.78, -333.66, -178.68, 0.000, 0.000, 0.000, 23:35:30.857
194, -1203.42, -1294.25, -304.79, -151.54, 0.000, 0.000, 0.000, 23:35:30.858
197, -1187.90, -1283.09, -287.80, -137.35, 0.000, 0.000, 0.000, 23:35:30.859
198, -1157.30, -1264.91, -276.14, -121.12, 0.000, 0.000, 0.000, 23:35:30.859
199, -1125.30, -1240.02, -287.91, -141.91, 0.000, 0.000, 0.000, 23:35:30.887
200, -1116.27, -1233.88, -281.78, -135.03, 0.000, 0.000, 0.000, 23:35:30.888
1, -1135.85, -1246.97, -284.63, -145.65, 0.000, 0.000, 0.000, 23:35:30.888
2, -1138.50, -1247.80, -296.96, -157.85, 0.000, 0.000, 0.000, 23:35:30.888
3, -1164.36, -1266.86, -281.03, -134.29, 0.000, 0.000, 0.000, 23:35:30.917
4, -1177.57, -1269.00, -264.64, -128.71, 0.000, 0.000, 0.000, 23:35:30.917
7, -1201.52, -1287.90, -256.15, -125.02, 0.000, 0.000, 0.000, 23:35:30.918
8, -1215.75, -1296.43, -266.57, -136.17, 0.000, 0.000, 0.000, 23:35:30.918
13, -1226.08, -1296.98, -259.74, -128.30, 0.000, 0.000, 0.000, 23:35:30.946
14, -1213.74, -1280.02, -248.39, -122.74, 0.000, 0.000, 0.000, 23:35:30.946
15, -1203.47, -1270.13, -259.39, -132.16, 0.000, 0.000, 0.000, 23:35:30.947
16, -1204.58, -1268.43, -244.55, -105.77, 0.000, 0.000, 0.000, 23:35:30.947
19, -1206.64, -1266.56, -246.48, -89.02, 0.000, 0.000, 0.000, 23:35:30.976
20, -1212.13, -1266.06, -229.53, -74.22, 0.000, 0.000, 0.000, 23:35:30.976
21, -1198.82, -1258.07, -233.21, -84.85, 0.000, 0.000, 0.000, 23:35:30.978
22, -1191.95, -1252.64, -244.17, -89.09, 0.000, 0.000, 0.000, 23:35:30.978
25, -1194.42, -1255.30, -270.54, -111.93, 0.000, 0.000, 0.000, 23:35:31.007
26, -1198.22, -1259.61, -261.14, -94.53, 0.000, 0.000, 0.000, 23:35:31.007
27, -1196.16, -1256.80, -251.74, -95.31, 0.000, 0.000, 0.000, 23:35:31.008
28, -1177.57, -1248.56, -251.41, -97.71, 0.000, 0.000, 0.000, 23:35:31.008
31, -1174.35, -1245.14, -272.22, -116.20, 0.000, 0.000, 0.000, 23:35:31.036
32, -1168.02, -1239.03, -271.23, -106.58, 0.000, 0.000, 0.000, 23:35:31.036
33, -1164.83, -1239.03, -254.53, -95.09, 0.000, 0.000, 0.000, 23:35:31.039
34, -1158.35, -1229.25, -249.87, -96.21, 0.000, 0.000, 0.000, 23:35:31.039
37, -1170.59, -1244.24, -258.19, -106.36, 0.000, 0.000, 0.000, 23:35:31.067
38, -1155.37, -1233.59, -260.02, -110.40, 0.000, 0.000, 0.000, 23:35:31.067
39, -1170.23, -1247.62, -270.33, -117.20, 0.000, 0.000, 0.000, 23:35:31.068
40, -1161.56, -1231.83, -246.01, -97.19, 0.000, 0.000, 0.000, 23:35:31.068
43, -1152.29, -1219.63, -222.83, -72.74, 0.000, 0.000, 0.000, 23:35:31.097
44, -1152.96, -1212.25, -218.48, -82.52, 0.000, 0.000, 0.000, 23:35:31.097
45, -1151.23, -1218.31, -241.20, -97.70, 0.000, 0.000, 0.000, 23:35:31.098
46, -1152.93, -1221.62, -229.86, -85.13, 0.000, 0.000, 0.000, 23:35:31.098
49, -1172.48, -1234.16, -235.98, -81.37, 0.000, 0.000, 0.000, 23:35:31.127
50, -1174.23, -1232.50, -227.91, -74.65, 0.000, 0.000, 0.000, 23:35:31.127
51, -1166.40, -1222.88, -232.25, -86.24, 0.000, 0.000, 0.000, 23:35:31.128
52, -1164.78, -1225.24, -234.23, -83.04, 0.000, 0.000, 0.000, 23:35:31.128
55, -1180.01, -1239.85, -265.27, -105.21, 0.000, 0.000, 0.000, 23:35:31.157
56, -1174.61, -1228.87, -241.04, -80.91, 0.000, 0.000, 0.000, 23:35:31.157
57, -1173.93, -1220.01, -227.24, -77.27, 0.000, 0.000, 0.000, 23:35:31.159
58, -1167.62, -1222.59, -249.74, -95.62, 0.000, 0.000, 0.000, 23:35:31.159
61, -1161.14, -1218.92, -250.72, -111.56, 0.000, 0.000, 0.000, 23:35:31.186
62, -1150.45, -1210.27, -258.62, -98.14, 0.000, 0.000, 0.000, 23:35:31.187
63, -1156.86, -1214.18, -250.33, -105.07, 0.000, 0.000, 0.000, 23:35:31.188
64, -1173.22, -1228.24, -265.15, -119.17, 0.000, 0.000, 0.000, 23:35:31.188
67, -1178.65, -1223.45, -257.92, -116.31, 0.000, 0.000, 0.000, 23:35:31.217
68, -1155.74, -1210.11, -247.85, -107.46, 0.000, 0.000, 0.000, 23:35:31.217
69, -1156.29, -1213.58, -258.24, -101.47, 0.000, 0.000, 0.000, 23:35:31.218
70, -1163.36, -1213.08, -250.46, -101.82, 0.000, 0.000, 0.000, 23:35:31.219
73, -1167.83, -1213.49, -242.06, -87.88, 0.000, 0.000, 0.000, 23:35:31.247
74, -1170.15, -1216.51, -236.83, -103.26, 0.000, 0.000, 0.000, 23:35:31.247
75, -1162.17, -1208.96, -260.13, -117.00, 0.000, 0.000, 0.000, 23:35:31.248
76, -1164.82, -1213.03, -246.56, -97.81, 0.000, 0.000, 0.000, 23:35:31.248
79, -1167.99, -1218.50, -248.46, -92.12, 0.000, 0.000, 0.000, 23:35:31.277
80, -1161.93, -1213.21, -232.15, -79.95, 0.000, 0.000, 0.000, 23:35:31.278
81, -1168.50, -1214.31, -244.73, -105.25, 0.000, 0.000, 0.000, 23:35:31.278
82, -1152.35, -1204.11, -241.88, -94.08, 0.000, 0.000, 0.000, 23:35:31.278
85, -1163.10, -1218.14, -273.21, -114.13, 0.000, 0.000, 0.000, 23:35:31.307
86, -1145.82, -1201.47, -242.37, -80.26, 0.000, 0.000, 0.000, 23:35:31.307
87, -1157.45, -1213.78, -233.39, -78.10, 0.000, 0.000, 0.000, 23:35:31.309
88, -1158.69, -1218.41, -260.04, -110.59, 0.000, 0.000, 0.000, 23:35:31.309
91, -1131.85, -1198.17, -244.08, -97.25, 0.000, 0.000, 0.000, 23:35:31.337
92, -1141.91, -1207.24, -263.90, -106.15, 0.000, 0.000, 0.000, 23:35:31.337
93, -1155.37, -1212.45, -259.90, -110.08, 0.000, 0.000, 0.000, 23:35:31.338
94, -1142.98, -1199.13, -236.58, -104.51, 0.000, 0.000, 0.000, 23:35:31.338
97, -1145.31, -1202.12, -234.51, -99.65, 0.000, 0.000, 0.000, 23:35:31.367
98, -1116.51, -1177.97, -221.76, -90.96, 0.000, 0.000, 0.000, 23:35:31.368
99, -1116.58, -1179.97, -227.21, -82.96, 0.000, 0.000, 0.000, 23:35:31.368
100, -1140.24, -1192.21, -233.39, -96.11, 0.000, 0.000, 0.000, 23:35:31.368
103, -1159.29, -1208.24, -230.13, -99.89, 0.000, 0.000, 0.000, 23:35:31.397
104, -1124.76, -1177.46, -191.71, -70.11, 0.000, 0.000, 0.000, 23:35:31.397
105, -1123.24, -1180.65, -215.23, -75.98, 0.000, 0.000, 0.000, 23:35:31.399
106, -1151.09, -1206.91, -223.96, -94.51, 0.000, 0.000, 0.000, 23:35:31.399
109, -1130.54, -1185.24, -209.64, -73.28, 0.000, 0.000, 0.000, 23:35:31.427
110, -1148.13, -1204.12, -216.18, -86.06, 0.000, 0.000, 0.000, 23:35:31.427
111, -1146.70, -1195.35, -216.45, -86.95, 0.000, 0.000, 0.000, 23:35:31.428
112, -1137.02, -1195.25, -212.56, -76.70, 0.000, 0.000, 0.000, 23:35:31.428
115, -1132.55, -1186.00, -224.55, -81.00, 0.000, 0.000, 0.000, 23:35:31.457
116, -1122.65, -1172.79, -193.70, -52.24, 0.000, 0.000, 0.000, 23:35:31.457
117, -1158.93, -1207.42, -225.24, -91.69, 0.000, 0.000, 0.000, 23:35:31.458
118, -1164.35, -1210.41, -243.50, -117.47, 0.000, 0.000, 0.000, 23:35:31.458
121, -1147.11, -1185.72, -236.75, -109.24, 0.000, 0.000, 0.000, 23:35:31.487
122, -1129.10, -1170.73, -239.05, -99.01, 0.000, 0.000, 0.000, 23:35:31.487
123, -1128.53, -1176.51, -224.61, -87.71, 0.000, 0.000, 0.000, 23:35:31.488
124, -1160.14, -1198.86, -266.97, -141.53, 0.000, 0.000, 0.000, 23:35:31.488
127, -1171.59, -1214.24, -275.63, -160.33, 0.000, 0.000, 0.000, 23:35:31.517
128, -1156.08, -1202.89, -276.78, -154.21, 0.000, 0.000, 0.000, 23:35:31.517
129, -1126.99, -1174.16, -250.55, -124.79, 0.000, 0.000, 0.000, 23:35:31.518
130, -1174.27, -1211.67, -274.63, -151.39, 0.000, 0.000, 0.000, 23:35:31.518
133, -1184.46, -1221.66, -278.39, -149.62, 0.000, 0.000, 0.000, 23:35:31.547
134, -1188.09, -1221.58, -278.06, -154.78, 0.000, 0.000, 0.000, 23:35:31.547
135, -1149.82, -1187.82, -253.98, -126.26, 0.000, 0.000, 0.000, 23:35:31.548
136, -1148.62, -1186.69, -248.83, -126.74, 0.000, 0.000, 0.000, 23:35:31.548
139, -1165.14, -1202.00, -267.68, -137.70, 0.000, 0.000, 0.000, 23:35:31.577
140, -1157.58, -1189.17, -231.59, -102.16, 0.000, 0.000, 0.000, 23:35:31.577
141, -1137.95, -1174.36, -220.49, -97.19, 0.000, 0.000, 0.000, 23:35:31.578
142, -1127.59, -1168.00, -234.37, -97.07, 0.000, 0.000, 0.000, 23:35:31.578
145, -1099.87, -1146.95, -221.13, -72.25, 0.000, 0.000, 0.000, 23:35:31.607
146, -1155.80, -1197.08, -263.38, -116.47, 0.000, 0.000, 0.000, 23:35:31.607
147, -1169.37, -1200.38, -254.68, -115.09, 0.000, 0.000, 0.000, 23:35:31.608
148, -1176.92, -1205.54, -264.96, -124.49, 0.000, 0.000, 0.000, 23:35:31.608
151, -1167.20, -1198.75, -263.17, -130.26, 0.000, 0.000, 0.000, 23:35:31.636
152, -1105.26, -1144.66, -217.05, -75.94, 0.000, 0.000, 0.000, 23:35:31.637
153, -1124.06, -1155.51, -217.11, -75.08, 0.000, 0.000, 0.000, 23:35:31.638
154, -1081.67, -1110.07, -196.55, -61.80, 0.000, 0.000, 0.000, 23:35:31.638
157, -1027.75, -1061.82, -152.42, -24.59, 0.000, 0.000, 0.000, 23:35:31.667
158, -1032.31, -1070.52, -187.67, -58.41, 0.000, 0.000, 0.000, 23:35:31.667
159, -1025.52, -1069.82, -189.87, -62.63, 0.000, 0.000, 0.000, 23:35:31.669
160, -1017.65, -1055.39, -162.29, -35.96, 0.000, 0.000, 0.000, 23:35:31.669
163, -1028.20, -1066.00, -149.92, -21.86, 0.000, 0.000, 0.000, 23:35:31.697
164, -1021.70, -1062.58, -146.11, -38.29, 0.000, 0.000, 0.000, 23:35:31.697
165, -1008.86, -1051.56, -146.53, -29.11, 0.000, 0.000, 0.000, 23:35:31.698
166, -1023.67, -1067.71, -146.41, -26.09, 0.000, 0.000, 0.000, 23:35:31.698
169, -1011.91, -1064.11, -134.62, -15.14, 0.000, 0.000, 0.000, 23:35:31.726
170, -1041.69, -1085.94, -153.47, -33.89, 0.000, 0.000, 0.000, 23:35:31.727
171, -1048.62, -1096.32, -163.64, -48.61, 0.000, 0.000, 0.000, 23:35:31.728
172, -1059.98, -1106.85, -171.79, -49.25, 0.000, 0.000, 0.000, 23:35:31.728
175, -1066.25, -1113.09, -188.23, -56.73, 0.000, 0.000, 0.000, 23:35:31.757
176, -1083.33, -1121.62, -182.36, -43.34, 0.000, 0.000, 0.000, 23:35:31.757
177, -1076.98, -1120.92, -170.71, -46.03, 0.000, 0.000, 0.000, 23:35:31.759
178, -1065.77, -1113.67, -175.87, -53.91, 0.000, 0.000, 0.000, 23:35:31.759
181, -1081.29, -1131.22, -194.35, -71.39, 0.000, 0.000, 0.000, 23:35:31.786
182, -1079.80, -1125.67, -212.32, -77.87, 0.000, 0.000, 0.000, 23:35:31.787
183, -1026.09, -1081.18, -161.53, -35.04, 0.000, 0.000, 0.000, 23:35:31.787
184, -1067.34, -1126.43, -188.77, -76.23, 0.000, 0.000, 0.000, 23:35:31.788
187, -1072.89, -1128.41, -177.49, -66.32, 0.000, 0.000, 0.000, 23:35:31.816
188, -1062.49, -1116.12, -186.19, -80.40, 0.000, 0.000, 0.000, 23:35:31.817
189, -1045.31, -1109.04, -193.37, -81.94, 0.000, 0.000, 0.000, 23:35:31.818
190, -1071.31, -1126.30, -184.74, -79.06, 0.000, 0.000, 0.000, 23:35:31.818
193, -1095.38, -1136.87, -184.78, -84.45, 0.000, 0.000, 0.000, 23:35:31.847
194, -1082.78, -1123.96, -180.38, -77.03, 0.000, 0.000, 0.000, 23:35:31.847
195, -1087.68, -1132.17, -195.91, -93.63, 0.000, 0.000, 0.000, 23:35:31.848
196, -1075.14, -1119.32, -178.67, -77.56, 0.000, 0.000, 0.000, 23:35:31.849
199, -1081.52, -1122.70, -192.55, -96.98, 0.000, 0.000, 0.000, 23:35:31.877
200, -1082.35, -1126.27, -174.48, -83.33, 0.000, 0.000, 0.000, 23:35:31.877
0, -902.98, -980.63, -395.33, -253.44, 0.000, 0.000, 0.000, 23:35:31.878
5, -887.81, -969.18, -364.22, -219.49, 0.000, 0.000, 0.000, 23:35:31.907
6, -926.09, -1010.36, -394.54, -255.96, 0.000, 0.000, 0.000, 23:35:31.907
7, -941.47, -1021.94, -408.75, -269.77, 0.000, 0.000, 0.000, 23:35:31.908
8, -930.37, -1012.62, -411.19, -259.43, 0.000, 0.000, 0.000, 23:35:31.908
11, -940.87, -1032.30, -424.82, -264.92, 0.000, 0.000, 0.000, 23:35:31.938
12, -926.33, -1005.93, -396.43, -239.76, 0.000, 0.000, 0.000, 23:35:31.938
13, -904.31, -987.03, -364.37, -210.85, 0.000, 0.000, 0.000, 23:35:31.938
14, -903.34, -993.92, -385.63, -230.59, 0.000, 0.000, 0.000, 23:35:31.939
17, -882.66, -980.91, -388.12, -233.02, 0.000, 0.000, 0.000, 23:35:31.966
18, -903.30, -999.42, -396.90, -228.37, 0.000, 0.000, 0.000, 23:35:31.967
19, -904.62, -1008.03, -385.47, -232.59, 0.000, 0.000, 0.000, 23:35:31.967
20, -898.20, -983.03, -375.48, -223.84, 0.000, 0.000, 0.000, 23:35:31.968
23, -871.56, -956.96, -348.87, -204.95, 0.000, 0.000, 0.000, 23:35:31.996
24, -921.00, -998.61, -402.77, -250.06, 0.000, 0.000, 0.000, 23:35:31.996
25, -926.55, -1005.43, -400.91, -242.38, 0.000, 0.000, 0.000, 23:35:31.998
26, -912.70, -984.96, -381.95, -228.38, 0.000, 0.000, 0.000, 23:35:31.998
29, -916.59, -994.65, -380.48, -226.13, 0.000, 0.000, 0.000, 23:35:32.027
30, -910.39, -996.36, -393.60, -238.73, 0.000, 0.000, 0.000, 23:35:32.027
31, -935.17, -1019.54, -410.57, -250.15, 0.000, 0.000, 0.000, 23:35:32.028
32, -891.46, -983.84, -364.30, -210.44, 0.000, 0.000, 0.000, 23:35:32.028
35, -903.73, -991.01, -368.73, -220.80, 0.000, 0.000, 0.000, 23:35:32.057
36, -942.29, -1029.95, -385.93, -247.26, 0.000, 0.000, 0.000, 23:35:32.057
37, -928.44, -1017.69, -404.57, -260.64, 0.000, 0.000, 0.000, 23:35:32.058
38, -934.40, -1021.73, -403.49, -253.73, 0.000, 0.000, 0.000, 23:35:32.058
41, -943.15, -1031.36, -419.89, -259.88, 0.000, 0.000, 0.000, 23:35:32.087
42, -949.36, -1022.25, -399.69, -238.83, 0.000, 0.000, 0.000, 23:35:32.087
43, -947.28, -1019.64, -390.16, -237.18, 0.000, 0.000, 0.000, 23:35:32.088
44, -930.64, -1003.71, -391.96, -233.13, 0.000, 0.000, 0.000, 23:35:32.088
47, -921.60, -987.74, -386.72, -233.04, 0.000, 0.000, 0.000, 23:35:32.117
48, -919.53, -986.15, -395.15, -228.32, 0.000, 0.000, 0.000, 23:35:32.118
49, -928.57, -998.06, -378.57, -219.14, 0.000, 0.000, 0.000, 23:35:32.118
50, -914.45, -986.95, -395.55, -246.29, 0.000, 0.000, 0.000, 23:35:32.118
53, -916.85, -984.35, -396.45, -253.57, 0.000, 0.000, 0.000, 23:35:32.147
54, -921.97, -988.05, -403.93, -250.33, 0.000, 0.000, 0.000, 23:35:32.147
55, -917.60, -988.37, -406.37, -246.14, 0.000, 0.000, 0.000, 23:35:32.148
56, -918.81, -980.80, -377.48, -229.63, 0.000, 0.000, 0.000, 23:35:32.148
59, -922.04, -977.97, -359.80, -213.92, 0.000, 0.000, 0.000, 23:35:32.176
60, -948.71, -1005.66, -385.82, -247.14, 0.000, 0.000, 0.000, 23:35:32.177
61, -923.06, -984.85, -374.79, -227.75, 0.000, 0.000, 0.000, 23:35:32.177
62, -919.09, -988.66, -366.11, -221.77, 0.000, 0.000, 0.000, 23:35:32.178
65, -918.23, -981.18, -344.70, -199.07, 0.000, 0.000, 0.000, 23:35:32.207
66, -914.35, -976.34, -327.09, -203.53, 0.000, 0.000, 0.000, 23:35:32.207
67, -918.27, -980.14, -344.18, -214.73, 0.000, 0.000, 0.000, 23:35:32.208
68, -914.76, -981.95, -354.44, -211.44, 0.000, 0.000, 0.000, 23:35:32.208
71, -903.11, -973.83, -354.07, -201.89, 0.000, 0.000, 0.000, 23:35:32.236
72, -898.66, -973.39, -329.12, -177.85, 0.000, 0.000, 0.000, 23:35:32.236
73, -877.40, -950.29, -314.83, -163.58, 0.000, 0.000, 0.000, 23:35:32.238
74, -895.00, -972.61, -350.18, -193.21, 0.000, 0.000, 0.000, 23:35:32.238
77, -894.18, -968.11, -355.61, -189.27, 0.000, 0.000, 0.000, 23:35:32.267
78, -877.76, -959.73, -359.85, -188.63, 0.000, 0.000, 0.000, 23:35:32.267
79, -871.94, -952.43, -337.03, -187.74, 0.000, 0.000, 0.000, 23:35:32.267
80, -873.91, -959.36, -353.35, -206.64, 0.000, 0.000, 0.000, 23:35:32.267
83, -847.93, -938.67, -332.95, -195.60, 0.000, 0.000, 0.000, 23:35:32.297
84, -809.12, -906.71, -325.64, -184.30, 0.000, 0.000, 0.000, 23:35:32.297
85, -857.01, -949.90, -353.76, -198.64, 0.000, 0.000, 0.000, 23:35:32.298
86, -839.57, -937.16, -332.01, -176.90, 0.000, 0.000, 0.000, 23:35:32.298
89, -839.11, -943.55, -317.67, -164.08, 0.000, 0.000, 0.000, 23:35:32.326
90, -846.74, -948.29, -324.39, -178.65, 0.000, 0.000, 0.000, 23:35:32.334
91, -849.28, -956.41, -341.67, -186.12, 0.000, 0.000, 0.000, 23:35:32.334
92, -861.88, -967.70, -329.53, -170.94, 0.000, 0.000, 0.000, 23:35:32.334
95, -894.12, -1003.24, -338.81, -174.43, 0.000, 0.000, 0.000, 23:35:32.356
96, -915.85, -1018.36, -332.65, -184.92, 0.000, 0.000, 0.000, 23:35:32.356
97, -884.32, -998.08, -303.07, -151.16, 0.000, 0.000, 0.000, 23:35:32.358
98, -908.47, -1025.11, -309.33, -146.17, 0.000, 0.000, 0.000, 23:35:32.358
101, -915.33, -1034.45, -316.96, -149.51, 0.000, 0.000, 0.000, 23:35:32.386
102, -920.69, -1038.43, -301.78, -138.36, 0.000, 0.000, 0.000, 23:35:32.387
103, -945.62, -1059.10, -308.08, -147.30, 0.000, 0.000, 0.000, 23:35:32.388
104, -950.12, -1068.13, -325.83, -152.99, 0.000, 0.000, 0.000, 23:35:32.388
107, -967.88, -1089.60, -345.56, -174.14, 0.000, 0.000, 0.000, 23:35:32.417
108, -963.01, -1085.82, -348.33, -161.66, 0.000, 0.000, 0.000, 23:35:32.417
109, -987.78, -1098.35, -336.14, -160.87, 0.000, 0.000, 0.000, 23:35:32.418
110, -956.96, -1080.83, -333.74, -165.47, 0.000, 0.000, 0.000, 23:35:32.418
113, -927.90, -1050.99, -317.25, -155.32, 0.000, 0.000, 0.000, 23:35:32.446
114, -923.57, -1049.43, -325.93, -163.88, 0.000, 0.000, 0.000, 23:35:32.446
115, -919.25, -1043.66, -312.43, -149.95, 0.000, 0.000, 0.000, 23:35:32.447
116, -898.19, -1020.94, -289.27, -134.64, 0.000, 0.000, 0.000, 23:35:32.447
119, -879.41, -992.69, -259.95, -110.61, 0.000, 0.000, 0.000, 23:35:32.477
120, -871.79, -992.89, -275.98, -137.47, 0.000, 0.000, 0.000, 23:35:32.477
121, -864.61, -985.77, -281.47, -128.98, 0.000, 0.000, 0.000, 23:35:32.478
122, -853.59, -973.87, -260.07, -101.20, 0.000, 0.000, 0.000, 23:35:32.478
125, -857.35, -976.69, -256.93, -95.08, 0.000, 0.000, 0.000, 23:35:32.507
126, -855.32, -973.12, -245.70, -89.00, 0.000, 0.000, 0.000, 23:35:32.507
127, -843.04, -964.11, -258.69, -95.07, 0.000, 0.000, 0.000, 23:35:32.508
128, -839.72, -960.79, -253.44, -89.28, 0.000, 0.000, 0.000, 23:35:32.508
131, -824.20, -947.02, -267.75, -91.10, 0.000, 0.000, 0.000, 23:35:32.537
132, -823.37, -946.35, -247.28, -80.45, 0.000, 0.000, 0.000, 23:35:32.537
133, -815.94, -938.51, -240.68, -82.86, 0.000, 0.000, 0.000, 23:35:32.538
134, -825.12, -944.97, -270.80, -101.28, 0.000, 0.000, 0.000, 23:35:32.538
137, -805.66, -932.68, -269.10, -107.14, 0.000, 0.000, 0.000, 23:35:32.567
138, -806.59, -938.36, -264.65, -94.96, 0.000, 0.000, 0.000, 23:35:32.567
139, -828.49, -952.93, -279.04, -109.15, 0.000, 0.000, 0.000, 23:35:32.568
140, -838.69, -963.12, -299.18, -137.37, 0.000, 0.000, 0.000, 23:35:32.568
143, -829.46, -956.30, -294.53, -138.14, 0.000, 0.000, 0.000, 23:35:32.596
144, -839.66, -972.15, -323.94, -169.66, 0.000, 0.000, 0.000, 23:35:32.596
145, -840.93, -968.79, -314.00, -152.56, 0.000, 0.000, 0.000, 23:35:32.597
146, -805.65, -932.57, -258.01, -103.63, 0.000, 0.000, 0.000, 23:35:32.598
149, -804.74, -933.78, -244.20, -93.31, 0.000, 0.000, 0.000, 23:35:32.626
150, -816.14, -942.56, -249.94, -109.87, 0.000, 0.000, 0.000, 23:35:32.626
151, -827.46, -953.66, -261.87, -109.61, 0.000, 0.000, 0.000, 23:35:32.628
152, -832.33, -955.08, -245.53, -84.18, 0.000, 0.000, 0.000, 23:35:32.628
155, -837.06, -953.85, -235.48, -74.69, 0.000, 0.000, 0.000, 23:35:32.656
156, -838.67, -950.43, -230.84, -76.31, 0.000, 0.000, 0.000, 23:35:32.656
157, -826.91, -945.14, -241.42, -83.47, 0.000, 0.000, 0.000, 23:35:32.658
158, -837.40, -949.02, -243.98, -75.61, 0.000, 0.000, 0.000, 23:35:32.658
161, -826.96, -951.07, -253.42, -79.87, 0.000, 0.000, 0.000, 23:35:32.687
162, -838.20, -956.56, -252.98, -79.10, 0.000, 0.000, 0.000, 23:35:32.687
163, -842.65, -959.14, -255.50, -80.90, 0.000, 0.000, 0.000, 23:35:32.688
164, -833.37, -950.44, -253.76, -81.05, 0.000, 0.000, 0.000, 23:35:32.688
167, -819.73, -936.35, -255.72, -82.40, 0.000, 0.000, 0.000, 23:35:32.717
168, -834.71, -959.53, -276.64, -99.00, 0.000, 0.000, 0.000, 23:35:32.717
169, -849.35, -968.00, -274.25, -105.07, 0.000, 0.000, 0.000, 23:35:32.718
170, -834.11, -959.20, -269.50, -100.79, 0.000, 0.000, 0.000, 23:35:32.718
173, -842.98, -959.21, -277.66, -117.09, 0.000, 0.000, 0.000, 23:35:32.747
174, -810.25, -938.02, -267.35, -106.06, 0.000, 0.000, 0.000, 23:35:32.747
175, -812.93, -936.84, -255.44, -87.86, 0.000, 0.000, 0.000, 23:35:32.748
176, -821.52, -942.31, -254.74, -101.05, 0.000, 0.000, 0.000, 23:35:32.748
179, -807.46, -928.06, -220.91, -77.13, 0.000, 0.000, 0.000, 23:35:32.777
180, -802.35, -921.46, -226.00, -83.54, 0.000, 0.000, 0.000, 23:35:32.777
181, -800.36, -926.31, -236.99, -87.88, 0.000, 0.000, 0.000, 23:35:32.777
182, -801.66, -928.66, -220.97, -72.52, 0.000, 0.000, 0.000, 23:35:32.777
185, -801.98, -930.02, -217.46, -63.97, 0.000, 0.000, 0.000, 23:35:32.807
186, -803.84, -934.64, -207.17, -61.02, 0.000, 0.000, 0.000, 23:35:32.807
187, -790.40, -925.14, -211.97, -71.13, 0.000, 0.000, 0.000, 23:35:32.808
188, -783.05, -909.43, -205.77, -56.27, 0.000, 0.000, 0.000, 23:35:32.808
191, -790.93, -916.20, -218.18, -67.38, 0.000, 0.000, 0.000, 23:35:32.837
192, -798.42, -923.51, -223.61, -67.14, 0.000, 0.000, 0.000, 23:35:32.837
193, -765.17, -895.70, -189.38, -32.87, 0.000, 0.000, 0.000, 23:35:32.838
194, -750.16, -886.57, -181.53, -20.30, 0.000, 0.000, 0.000, 23:35:32.839
197, -728.64, -866.78, -193.42, -37.48, 0.000, 0.000, 0.000, 23:35:32.867
198, -713.73, -855.95, -193.72, -35.16, 0.000, 0.000, 0.000, 23:35:32.867
199, -701.73, -847.00, -186.19, -25.08, 0.000, 0.000, 0.000, 23:35:32.868
200, -683.66, -826.39, -164.38, -15.15, 0.000, 0.000, 0.000, 23:35:32.868
1, -675.54, -822.88, -160.26, -7.83, 0.000, 0.000, 0.000, 23:35:32.897
2, -671.78, -818.26, -151.96, -1.37, 0.000, 0.000, 0.000, 23:35:32.897
3, -660.07, -802.18, -162.97, -13.99, 0.000, 0.000, 0.000, 23:35:32.898
4, -652.47, -800.52, -162.81, -7.81, 0.000, 0.000, 0.000, 23:35:32.898
7, -658.82, -806.98, -170.12, -10.16, 0.000, 0.000, 0.000, 23:35:32.926
8, -670.92, -819.11, -169.84, -11.69, 0.000, 0.000, 0.000, 23:35:32.927
9, -664.93, -817.85, -177.65, -19.48, 0.000, 0.000, 0.000, 23:35:32.927
10, -660.25, -822.58, -179.01, -21.85, 0.000, 0.000, 0.000, 23:35:32.927
13, -660.03, -828.70, -196.27, -37.15, 0.000, 0.000, 0.000, 23:35:32.957
14, -661.20, -831.66, -176.57, -13.06, 0.000, 0.000, 0.000, 23:35:32.957
15, -683.89, -849.69, -185.55, -21.09, 0.000, 0.000, 0.000, 23:35:32.958
16, -685.48, -850.68, -183.13, -27.98, 0.000, 0.000, 0.000, 23:35:32.959
19, -682.16, -847.83, -174.51, -22.34, 0.000, 0.000, 0.000, 23:35:32.986
20, -660.58, -827.54, -156.77, -3.95, 0.000, 0.000, 0.000, 23:35:32.987
21, -674.56, -839.64, -170.60, -12.27, 0.000, 0.000, 0.000, 23:35:32.987
22, -678.97, -835.45, -166.57, -15.10, 0.000, 0.000, 0.000, 23:35:32.987
25, -692.89, -849.07, -165.20, -22.16, 0.000, 0.000, 0.000, 23:35:33.016
26, -695.11, -844.90, -178.46, -40.35, 0.000, 0.000, 0.000, 23:35:33.016
27, -702.38, -851.30, -187.99, -35.68, 0.000, 0.000, 0.000, 23:35:33.018
28, -666.87, -819.66, -152.89, -1.10, 0.000, 0.000, 0.000, 23:35:33.018
31, -669.90, -833.09, -157.86, -2.18, 0.000, 0.000, 0.000, 23:35:33.047
32, -676.72, -836.23, -161.57, -16.88, 0.000, 0.000, 0.000, 23:35:33.047
33, -662.08, -827.88, -150.83, 6.18, 0.000, 0.000, 0.000, 23:35:33.048
34, -670.92, -837.17, -158.14, -4.26, 0.000, 0.000, 0.000, 23:35:33.048
37, -670.91, -836.98, -155.83, -4.87, 0.000, 0.000, 0.000, 23:35:33.077
38, -678.23, -838.82, -159.46, -7.19, 0.000, 0.000, 0.000, 23:35:33.077
39, -676.33, -840.99, -156.16, -1.11, 0.000, 0.000, 0.000, 23:35:33.078
40, -663.69, -830.90, -156.19, 0.41, 0.000, 0.000, 0.000, 23:35:33.078
43, -654.62, -823.12, -161.45, 4.60, 0.000, 0.000, 0.000, 23:35:33.107
44, -670.85, -836.66, -156.58, 24.12, 0.000, 0.000, 0.000, 23:35:33.107
45, -684.39, -849.93, -172.99, -14.57, 0.000, 0.000, 0.000, 23:35:33.108
46, -669.86, -843.31, -166.86, -10.97, 0.000, 0.000, 0.000, 23:35:33.108
49, -653.25, -830.07, -135.61, 15.01, 0.000, 0.000, 0.000, 23:35:33.137
50, -663.92, -847.65, -152.63, 2.78, 0.000, 0.000, 0.000, 23:35:33.137
51, -669.82, -841.76, -150.83, 8.03, 0.000, 0.000, 0.000, 23:35:33.166
52, -656.73, -826.93, -151.16, 6.66, 0.000, 0.000, 0.000, 23:35:33.167
55, -652.63, -822.42, -145.11, 9.18, 0.000, 0.000, 0.000, 23:35:33.167
56, -643.90, -812.84, -136.24, 12.22, 0.000, 0.000, 0.000, 23:35:33.168
57, -643.12, -806.22, -125.86, 27.36, 0.000, 0.000, 0.000, 23:35:33.197
58, -642.18, -813.19, -134.87, 17.77, 0.000, 0.000, 0.000, 23:35:33.197
61, -642.29, -819.37, -153.73, 6.36, 0.000, 0.000, 0.000, 23:35:33.198
62, -647.20, -816.87, -141.41, 13.22, 0.000, 0.000, 0.000, 23:35:33.198
63, -649.83, -824.21, -151.57, 5.94, 0.000, 0.000, 0.000, 23:35:33.227
64, -663.79, -830.71, -157.72, 4.10, 0.000, 0.000, 0.000, 23:35:33.227
67, -645.53, -813.77, -155.48, 12.22, 0.000, 0.000, 0.000, 23:35:33.228
68, -645.50, -819.46, -139.49, 30.54, 0.000, 0.000, 0.000, 23:35:33.228
69, -658.97, -830.40, -150.55, 11.46, 0.000, 0.000, 0.000, 23:35:33.256
70, -654.61, -828.99, -167.39, 4.66, 0.000, 0.000, 0.000, 23:35:33.256
73, -675.08, -853.33, -201.18, -26.58, 0.000, 0.000, 0.000, 23:35:33.258
74, -685.96, -860.99, -204.50, -22.37, 0.000, 0.000, 0.000, 23:35:33.258
79, -664.27, -853.19, -193.53, -15.07, 0.000, 0.000, 0.000, 23:35:33.287
80, -684.04, -873.47, -225.48, -41.52, 0.000, 0.000, 0.000, 23:35:33.287
81, -681.11, -860.49, -204.01, -16.94, 0.000, 0.000, 0.000, 23:35:33.288
82, -667.34, -858.18, -191.94, -15.80, 0.000, 0.000, 0.000, 23:35:33.288
85, -698.37, -880.20, -190.70, -23.77, 0.000, 0.000, 0.000, 23:35:33.317
86, -682.85, -871.09, -212.01, -48.70, 0.000, 0.000, 0.000, 23:35:33.317
87, -655.96, -846.19, -178.11, -0.76, 0.000, 0.000, 0.000, 23:35:33.318
88, -663.14, -846.50, -168.45, 2.77, 0.000, 0.000, 0.000, 23:35:33.318
91, -676.08, -860.56, -167.07, -15.72, 0.000, 0.000, 0.000, 23:35:33.347
92, -693.15, -866.75, -171.02, -20.15, 0.000, 0.000, 0.000, 23:35:33.347
93, -661.41, -845.60, -168.59, -16.80, 0.000, 0.000, 0.000, 23:35:33.348
94, -677.71, -860.50, -166.00, -7.42, 0.000, 0.000, 0.000, 23:35:33.348
97, -663.64, -843.24, -155.76, 8.36, 0.000, 0.000, 0.000, 23:35:33.377
98, -699.06, -868.60, -159.89, 1.70, 0.000, 0.000, 0.000, 23:35:33.377
99, -672.65, -851.09, -147.58, 7.72, 0.000, 0.000, 0.000, 23:35:33.378
100, -660.64, -845.72, -151.01, 11.25, 0.000, 0.000, 0.000, 23:35:33.378
103, -667.65, -860.45, -186.84, -17.01, 0.000, 0.000, 0.000, 23:35:33.407
104, -669.35, -851.72, -162.28, 5.89, 0.000, 0.000, 0.000, 23:35:33.407
105, -664.55, -854.92, -153.63, 7.00, 0.000, 0.000, 0.000, 23:35:33.408
106, -664.43, -849.70, -172.21, -10.16, 0.000, 0.000, 0.000, 23:35:33.408
109, -666.52, -855.82, -174.11, -21.79, 0.000, 0.000, 0.000, 23:35:33.437
110, -643.34, -840.57, -176.03, -22.62, 0.000, 0.000, 0.000, 23:35:33.437
111, -674.22, -862.13, -190.90, -31.48, 0.000, 0.000, 0.000, 23:35:33.438
112, -677.27, -862.30, -195.12, -38.80, 0.000, 0.000, 0.000, 23:35:33.438
115, -699.06, -879.91, -201.53, -49.10, 0.000, 0.000, 0.000, 23:35:33.467
116, -694.25, -878.38, -226.65, -80.54, 0.000, 0.000, 0.000, 23:35:33.467
117, -705.76, -892.08, -222.94, -63.58, 0.000, 0.000, 0.000, 23:35:33.468
118, -708.05, -894.53, -201.55, -46.90, 0.000, 0.000, 0.000, 23:35:33.468
121, -737.45, -912.97, -200.20, -41.34, 0.000, 0.000, 0.000, 23:35:33.496
122, -739.87, -918.49, -196.13, -47.98, 0.000, 0.000, 0.000, 23:35:33.496
123, -718.37, -905.60, -202.41, -52.29, 0.000, 0.000, 0.000, 23:35:33.498
124, -718.10, -903.83, -196.21, -40.34, 0.000, 0.000, 0.000, 23:35:33.498
127, -708.48, -897.87, -199.90, -32.48, 0.000, 0.000, 0.000, 23:35:33.527
128, -677.46, -860.79, -142.94, 19.65, 0.000, 0.000, 0.000, 23:35:33.528
129, -666.30, -859.96, -164.49, -1.45, 0.000, 0.000, 0.000, 23:35:33.529
130, -682.31, -876.05, -188.01, -24.05, 0.000, 0.000, 0.000, 23:35:33.529
133, -668.48, -869.37, -196.41, -30.51, 0.000, 0.000, 0.000, 23:35:33.557
134, -677.12, -869.31, -189.87, -14.68, 0.000, 0.000, 0.000, 23:35:33.557
135, -688.74, -885.71, -185.49, -20.30, 0.000, 0.000, 0.000, 23:35:33.558
136, -672.81, -879.34, -197.52, -29.97, 0.000, 0.000, 0.000, 23:35:33.558
139, -665.51, -866.43, -205.76, -54.29, 0.000, 0.000, 0.000, 23:35:33.587
140, -647.39, -854.31, -211.23, -48.04, 0.000, 0.000, 0.000, 23:35:33.587
141, -633.12, -843.96, -197.55, -36.78, 0.000, 0.000, 0.000, 23:35:33.588
142, -647.13, -854.83, -208.22, -53.14, 0.000, 0.000, 0.000, 23:35:33.588
145, -659.25, -866.67, -212.14, -74.96, 0.000, 0.000, 0.000, 23:35:33.617
146, -661.73, -865.80, -226.42, -93.82, 0.000, 0.000, 0.000, 23:35:33.617
147, -659.64, -871.30, -219.87, -84.53, 0.000, 0.000, 0.000, 23:35:33.618
148, -688.83, -893.76, -207.68, -76.29, 0.000, 0.000, 0.000, 23:35:33.618
151, -677.12, -874.91, -169.36, -30.76, 0.000, 0.000, 0.000, 23:35:33.676
152, -674.83, -881.00, -162.16, -36.17, 0.000, 0.000, 0.000, 23:35:33.676
153, -703.52, -899.92, -192.07, -52.54, 0.000, 0.000, 0.000, 23:35:33.678
154, -720.75, -919.88, -197.96, -52.84, 0.000, 0.000, 0.000, 23:35:33.678
157, -758.32, -955.81, -221.05, -58.93, 0.000, 0.000, 0.000, 23:35:33.707
158, -773.24, -965.69, -200.24, -47.49, 0.000, 0.000, 0.000, 23:35:33.707
159, -775.48, -972.88, -210.54, -59.07, 0.000, 0.000, 0.000, 23:35:33.708
160, -810.11, -1000.70, -237.06, -84.97, 0.000, 0.000, 0.000, 23:35:33.708
163, -801.99, -992.71, -244.83, -94.81, 0.000, 0.000, 0.000, 23:35:33.737
164, -817.15, -999.04, -233.98, -72.37, 0.000, 0.000, 0.000, 23:35:33.737
165, -816.49, -994.00, -222.74, -60.68, 0.000, 0.000, 0.000, 23:35:33.738
166, -812.64, -992.26, -216.43, -57.62, 0.000, 0.000, 0.000, 23:35:33.738
169, -811.33, -991.84, -225.44, -72.74, 0.000, 0.000, 0.000, 23:35:33.767
170, -817.53, -990.91, -233.46, -76.53, 0.000, 0.000, 0.000, 23:35:33.767
175, -829.47, -994.80, -234.82, -84.91, 0.000, 0.000, 0.000, 23:35:33.768
176, -804.26, -978.58, -248.76, -100.36, 0.000, 0.000, 0.000, 23:35:33.768
181, -806.20, -976.95, -234.19, -86.76, 0.000, 0.000, 0.000, 23:35:33.797
182, -793.76, -966.68, -234.89, -94.08, 0.000, 0.000, 0.000, 23:35:33.798
183, -782.11, -964.30, -260.35, -111.33, 0.000, 0.000, 0.000, 23:35:33.798
184, -783.11, -964.97, -250.89, -101.40, 0.000, 0.000, 0.000, 23:35:33.799
187, -765.62, -946.55, -242.13, -80.45, 0.000, 0.000, 0.000, 23:35:33.826
188, -775.37, -956.81, -243.84, -82.20, 0.000, 0.000, 0.000, 23:35:33.826
189, -778.42, -954.37, -253.15, -97.04, 0.000, 0.000, 0.000, 23:35:33.828
190, -776.67, -957.73, -281.63, -124.89, 0.000, 0.000, 0.000, 23:35:33.828
193, -790.11, -971.32, -320.43, -165.59, 0.000, 0.000, 0.000, 23:35:33.856
194, -782.79, -966.41, -297.94, -130.10, 0.000, 0.000, 0.000, 23:35:33.856
195, -781.64, -967.89, -287.97, -133.67, 0.000, 0.000, 0.000, 23:35:33.857
196, -791.45, -975.15, -313.47, -157.34, 0.000, 0.000, 0.000, 23:35:33.858
199, -766.05, -944.69, -298.43, -150.33, 0.000, 0.000, 0.000, 23:35:33.887
200, -747.68, -926.47, -292.76, -131.93, 0.000, 0.000, 0.000, 23:35:33.888
0, -956.80, -1059.74, -398.99, -246.07, 0.000, 0.000, 0.000, 23:35:33.888
5, -954.97, -1057.97, -417.06, -254.91, 0.000, 0.000, 0.000, 23:35:33.916
6, -948.98, -1049.16, -412.28, -253.42, 0.000, 0.000, 0.000, 23:35:33.916
7, -958.22, -1058.56, -407.93, -246.14, 0.000, 0.000, 0.000, 23:35:33.917
8, -947.72, -1051.26, -404.30, -254.90, 0.000, 0.000, 0.000, 23:35:33.917
11, -942.38, -1052.10, -402.95, -258.27, 0.000, 0.000, 0.000, 23:35:33.946
12, -952.82, -1062.24, -427.58, -274.94, 0.000, 0.000, 0.000, 23:35:33.946
13, -949.79, -1060.49, -409.35, -260.79, 0.000, 0.000, 0.000, 23:35:33.948
14, -946.31, -1056.77, -396.29, -248.04, 0.000, 0.000, 0.000, 23:35:33.948
17, -943.93, -1055.02, -379.53, -238.93, 0.000, 0.000, 0.000, 23:35:33.976
18, -926.72, -1033.92, -372.12, -236.67, 0.000, 0.000, 0.000, 23:35:33.976
19, -928.33, -1038.68, -384.96, -246.15, 0.000, 0.000, 0.000, 23:35:33.978
20, -925.56, -1036.37, -369.82, -228.25, 0.000, 0.000, 0.000, 23:35:33.978
23, -922.12, -1034.40, -360.22, -214.46, 0.000, 0.000, 0.000, 23:35:34.007
24, -931.13, -1034.14, -350.75, -214.69, 0.000, 0.000, 0.000, 23:35:34.007
25, -915.83, -1031.05, -357.91, -217.90, 0.000, 0.000, 0.000, 23:35:34.008
26, -915.64, -1030.59, -359.54, -208.87, 0.000, 0.000, 0.000, 23:35:34.008
29, -917.30, -1034.39, -370.41, -207.45, 0.000, 0.000, 0.000, 23:35:34.036
30, -934.62, -1049.16, -374.32, -214.25, 0.000, 0.000, 0.000, 23:35:34.036
31, -931.44, -1039.90, -365.74, -211.90, 0.000, 0.000, 0.000, 23:35:34.042
32, -907.49, -1019.52, -350.47, -200.58, 0.000, 0.000, 0.000, 23:35:34.042
35, -918.18, -1031.46, -377.35, -231.27, 0.000, 0.000, 0.000, 23:35:34.066
36, -921.88, -1036.69, -373.25, -221.31, 0.000, 0.000, 0.000, 23:35:34.066
37, -931.08, -1039.46, -364.50, -211.21, 0.000, 0.000, 0.000, 23:35:34.067
38, -880.46, -998.85, -345.24, -190.21, 0.000, 0.000, 0.000, 23:35:34.068
41, -889.56, -1007.44, -354.94, -201.29, 0.000, 0.000, 0.000, 23:35:34.097
42, -889.26, -1010.78, -382.11, -219.17, 0.000, 0.000, 0.000, 23:35:34.097
43, -887.78, -1010.81, -362.96, -201.36, 0.000, 0.000, 0.000, 23:35:34.098
44, -887.78, -1002.27, -351.18, -190.37, 0.000, 0.000, 0.000, 23:35:34.098
47, -887.53, -1001.82, -328.78, -178.32, 0.000, 0.000, 0.000, 23:35:34.127
48, -891.75, -1003.41, -338.26, -192.28, 0.000, 0.000, 0.000, 23:35:34.127
49, -884.25, -1004.60, -350.62, -195.62, 0.000, 0.000, 0.000, 23:35:34.128
50, -889.73, -1001.39, -341.38, -186.53, 0.000, 0.000, 0.000, 23:35:34.128
53, -882.89, -996.78, -322.59, -163.54, 0.000, 0.000, 0.000, 23:35:34.157
54, -877.24, -987.11, -305.03, -151.44, 0.000, 0.000, 0.000, 23:35:34.157
55, -887.91, -993.28, -332.88, -179.54, 0.000, 0.000, 0.000, 23:35:34.158
56, -874.90, -983.31, -321.36, -160.16, 0.000, 0.000, 0.000, 23:35:34.158
59, -879.94, -992.69, -338.06, -167.93, 0.000, 0.000, 0.000, 23:35:34.186
60, -868.09, -979.06, -304.72, -136.02, 0.000, 0.000, 0.000, 23:35:34.186
61, -880.39, -985.34, -310.97, -150.85, 0.000, 0.000, 0.000, 23:35:34.188
62, -871.45, -988.17, -332.66, -157.82, 0.000, 0.000, 0.000, 23:35:34.189
65, -849.51, -971.48, -340.26, -158.68, 0.000, 0.000, 0.000, 23:35:34.216
66, -857.37, -977.75, -341.79, -155.74, 0.000, 0.000, 0.000, 23:35:34.216
67, -862.08, -976.19, -334.84, -153.27, 0.000, 0.000, 0.000, 23:35:34.217
68, -867.00, -982.38, -344.63, -169.39, 0.000, 0.000, 0.000, 23:35:34.217
71, -862.19, -981.21, -344.81, -176.62, 0.000, 0.000, 0.000, 23:35:34.247
72, -858.25, -975.84, -361.08, -178.96, 0.000, 0.000, 0.000, 23:35:34.247
73, -867.05, -988.74, -356.86, -170.64, 0.000, 0.000, 0.000, 23:35:34.248
74, -863.04, -982.22, -334.22, -154.87, 0.000, 0.000, 0.000, 23:35:34.248
77, -870.13, -982.72, -314.16, -141.06, 0.000, 0.000, 0.000, 23:35:34.276
78, -871.15, -987.79, -337.95, -171.17, 0.000, 0.000, 0.000, 23:35:34.276
79, -869.62, -983.32, -351.86, -180.14, 0.000, 0.000, 0.000, 23:35:34.277
80, -858.34, -974.54, -320.11, -144.79, 0.000, 0.000, 0.000, 23:35:34.278
83, -871.50, -984.67, -322.61, -139.03, 0.000, 0.000, 0.000, 23:35:34.307
84, -868.01, -981.70, -301.22, -127.70, 0.000, 0.000, 0.000, 23:35:34.307
85, -861.26, -975.56, -311.64, -143.03, 0.000, 0.000, 0.000, 23:35:34.307
86, -870.93, -990.96, -328.67, -141.83, 0.000, 0.000, 0.000, 23:35:34.307
89, -865.47, -987.93, -338.60, -139.19, 0.000, 0.000, 0.000, 23:35:34.336
90, -874.27, -994.34, -328.36, -131.63, 0.000, 0.000, 0.000, 23:35:34.336
91, -878.57, -1000.20, -327.36, -142.36, 0.000, 0.000, 0.000, 23:35:34.338
92, -860.28, -980.05, -328.97, -133.50, 0.000, 0.000, 0.000, 23:35:34.338
95, -864.64, -983.86, -356.85, -161.19, 0.000, 0.000, 0.000, 23:35:34.366
96, -854.79, -978.01, -345.07, -136.46, 0.000, 0.000, 0.000, 23:35:34.367
97, -858.75, -973.14, -330.07, -131.43, 0.000, 0.000, 0.000, 23:35:34.367
98, -849.69, -965.67, -336.27, -142.38, 0.000, 0.000, 0.000, 23:35:34.368
101, -847.24, -958.26, -346.46, -158.79, 0.000, 0.000, 0.000, 23:35:34.397
102, -836.73, -960.10, -367.47, -178.73, 0.000, 0.000, 0.000, 23:35:34.397
103, -840.52, -962.28, -362.07, -162.93, 0.000, 0.000, 0.000, 23:35:34.398
104, -836.28, -954.74, -335.53, -148.06, 0.000, 0.000, 0.000, 23:35:34.398
107, -834.94, -956.37, -307.93, -124.60, 0.000, 0.000, 0.000, 23:35:34.427
108, -825.08, -945.57, -311.87, -131.00, 0.000, 0.000, 0.000, 23:35:34.427
109, -828.16, -949.56, -332.31, -146.19, 0.000, 0.000, 0.000, 23:35:34.428
110, -835.04, -957.18, -324.03, -135.19, 0.000, 0.000, 0.000, 23:35:34.428
113, -834.87, -959.31, -296.95, -105.20, 0.000, 0.000, 0.000, 23:35:34.457
114, -856.01, -980.35, -304.15, -118.13, 0.000, 0.000, 0.000, 23:35:34.457
115, -839.83, -963.95, -305.04, -112.51, 0.000, 0.000, 0.000, 23:35:34.457
116, -838.47, -970.81, -309.47, -110.83, 0.000, 0.000, 0.000, 23:35:34.458
119, -833.54, -967.04, -315.45, -106.03, 0.000, 0.000, 0.000, 23:35:34.486
120, -835.06, -970.78, -306.97, -96.26, 0.000, 0.000, 0.000, 23:35:34.487
121, -836.03, -969.39, -304.24, -105.24, 0.000, 0.000, 0.000, 23:35:34.489
122, -840.69, -979.18, -340.20, -131.87, 0.000, 0.000, 0.000, 23:35:34.489
125, -845.31, -985.79, -367.56, -156.53, 0.000, 0.000, 0.000, 23:35:34.516
126, -850.25, -990.41, -374.02, -157.07, 0.000, 0.000, 0.000, 23:35:34.516
127, -864.73, -999.38, -362.94, -154.37, 0.000, 0.000, 0.000, 23:35:34.517
128, -860.47, -998.64, -370.77, -162.76, 0.000, 0.000, 0.000, 23:35:34.518
131, -823.77, -964.04, -330.85, -123.23, 0.000, 0.000, 0.000, 23:35:34.547
132, -827.65, -970.22, -357.23, -155.25, 0.000, 0.000, 0.000, 23:35:34.547
133, -838.52, -980.23, -359.46, -151.32, 0.000, 0.000, 0.000, 23:35:34.548
134, -846.03, -982.94, -341.04, -137.48, 0.000, 0.000, 0.000, 23:35:34.548
137, -840.66, -979.17, -318.58, -115.32, 0.000, 0.000, 0.000, 23:35:34.577
138, -829.40, -963.99, -311.60, -120.13, 0.000, 0.000, 0.000, 23:35:34.577
139, -830.53, -963.76, -324.26, -120.60, 0.000, 0.000, 0.000, 23:35:34.578
140, -830.94, -969.12, -305.66, -100.49, 0.000, 0.000, 0.000, 23:35:34.578
143, -843.17, -990.62, -314.38, -102.61, 0.000, 0.000, 0.000, 23:35:34.609
144, -841.28, -987.89, -291.23, -88.99, 0.000, 0.000, 0.000, 23:35:34.609
145, -822.66, -967.74, -294.30, -90.52, 0.000, 0.000, 0.000, 23:35:34.609
146, -818.90, -963.57, -288.80, -73.78, 0.000, 0.000, 0.000, 23:35:34.610
149, -815.54, -965.91, -299.67, -74.72, 0.000, 0.000, 0.000, 23:35:34.637
150, -828.26, -975.93, -292.64, -71.87, 0.000, 0.000, 0.000, 23:35:34.637
151, -818.72, -966.43, -276.62, -56.94, 0.000, 0.000, 0.000, 23:35:34.638
152, -819.77, -964.82, -290.18, -72.51, 0.000, 0.000, 0.000, 23:35:34.638
155, -820.29, -969.48, -305.57, -92.19, 0.000, 0.000, 0.000, 23:35:34.666
156, -824.64, -972.48, -317.78, -90.13, 0.000, 0.000, 0.000, 23:35:34.666
157, -822.33, -965.07, -300.03, -77.51, 0.000, 0.000, 0.000, 23:35:34.668
158, -813.14, -961.80, -308.89, -88.41, 0.000, 0.000, 0.000, 23:35:34.668
161, -826.73, -972.10, -321.64, -108.10, 0.000, 0.000, 0.000, 23:35:34.696
162, -825.47, -972.03, -342.62, -124.20, 0.000, 0.000, 0.000, 23:35:34.696
163, -836.91, -980.06, -341.09, -116.69, 0.000, 0.000, 0.000, 23:35:34.698
164, -841.03, -980.62, -329.06, -107.73, 0.000, 0.000, 0.000, 23:35:34.698
167, -824.07, -966.72, -295.78, -82.21, 0.000, 0.000, 0.000, 23:35:34.726
168, -815.47, -955.32, -298.57, -89.05, 0.000, 0.000, 0.000, 23:35:34.726
169, -820.45, -960.83, -320.69, -101.68, 0.000, 0.000, 0.000, 23:35:34.728
170, -831.71, -968.13, -313.00, -96.35, 0.000, 0.000, 0.000, 23:35:34.728
173, -817.66, -957.19, -294.55, -73.95, 0.000, 0.000, 0.000, 23:35:34.757
174, -822.86, -961.90, -291.70, -76.25, 0.000, 0.000, 0.000, 23:35:34.757
175, -819.43, -960.45, -308.16, -91.46, 0.000, 0.000, 0.000, 23:35:34.758
176, -819.64, -965.83, -310.51, -84.96, 0.000, 0.000, 0.000, 23:35:34.758
179, -821.15, -969.88, -325.33, -87.15, 0.000, 0.000, 0.000, 23:35:34.787
180, -833.49, -979.04, -319.27, -93.01, 0.000, 0.000, 0.000, 23:35:34.787
181, -827.31, -973.64, -316.44, -91.37, 0.000, 0.000, 0.000, 23:35:34.788
182, -805.21, -957.06, -317.14, -89.23, 0.000, 0.000, 0.000, 23:35:34.789
185, -797.55, -952.49, -332.08, -105.23, 0.000, 0.000, 0.000, 23:35:34.816
186, -788.12, -948.29, -330.62, -91.29, 0.000, 0.000, 0.000, 23:35:34.816
187, -798.77, -955.63, -320.57, -92.45, 0.000, 0.000, 0.000, 23:35:34.817
188, -790.73, -942.62, -317.24, -91.97, 0.000, 0.000, 0.000, 23:35:34.818
191, -786.22, -932.74, -305.99, -89.32, 0.000, 0.000, 0.000, 23:35:34.847
192, -781.89, -930.77, -317.97, -105.26, 0.000, 0.000, 0.000, 23:35:34.847
193, -787.87, -934.65, -305.94, -78.64, 0.000, 0.000, 0.000, 23:35:34.848
194, -791.25, -936.42, -310.11, -90.84, 0.000, 0.000, 0.000, 23:35:34.848
197, -793.11, -929.07, -297.99, -77.17, 0.000, 0.000, 0.000, 23:35:34.877
198, -770.64, -912.72, -285.24, -72.18, 0.000, 0.000, 0.000, 23:35:34.877
199, -762.63, -909.27, -282.43, -57.55, 0.000, 0.000, 0.000, 23:35:34.878
200, -773.06, -915.02, -272.21, -45.38, 0.000, 0.000, 0.000, 23:35:34.878
1, -773.90, -918.82, -287.59, -62.16, 0.000, 0.000, 0.000, 23:35:34.907
2, -775.67, -921.17, -280.70, -47.75, 0.000, 0.000, 0.000, 23:35:34.907
3, -775.14, -919.11, -268.63, -43.35, 0.000, 0.000, 0.000, 23:35:34.908
4, -757.42, -903.18, -269.50, -43.18, 0.000, 0.000, 0.000, 23:35:34.908
7, -757.74, -907.18, -279.24, -54.77, 0.000, 0.000, 0.000, 23:35:34.937
8, -762.66, -911.13, -292.78, -56.20, 0.000, 0.000, 0.000, 23:35:34.937
9, -778.19, -925.90, -289.00, -56.09, 0.000, 0.000, 0.000, 23:35:34.938
10, -778.88, -917.34, -282.32, -61.81, 0.000, 0.000, 0.000, 23:35:34.938
13, -767.37, -904.64, -254.81, -41.22, 0.000, 0.000, 0.000, 23:35:34.966
14, -765.42, -899.27, -271.49, -57.25, 0.000, 0.000, 0.000, 23:35:34.966
15, -772.33, -907.97, -283.18, -59.28, 0.000, 0.000, 0.000, 23:35:34.968
16, -780.22, -915.38, -272.82, -49.68, 0.000, 0.000, 0.000, 23:35:34.968
19, -780.56, -915.55, -257.31, -35.15, 0.000, 0.000, 0.000, 23:35:34.997
20, -784.91, -919.15, -262.63, -46.93, 0.000, 0.000, 0.000, 23:35:34.997
21, -788.54, -927.73, -286.20, -65.78, 0.000, 0.000, 0.000, 23:35:34.998
22, -807.18, -942.75, -292.25, -69.28, 0.000, 0.000, 0.000, 23:35:34.998
25, -788.38, -917.07, -267.77, -36.46, 0.000, 0.000, 0.000, 23:35:35.026
26, -810.52, -938.92, -280.02, -53.37, 0.000, 0.000, 0.000, 23:35:35.027
27, -815.21, -944.28, -288.82, -66.80, 0.000, 0.000, 0.000, 23:35:35.028
28, -829.38, -958.06, -319.14, -87.52, 0.000, 0.000, 0.000, 23:35:35.028
31, -824.60, -948.55, -337.89, -104.78, 0.000, 0.000, 0.000, 23:35:35.057
32, -825.57, -956.87, -332.68, -90.82, 0.000, 0.000, 0.000, 23:35:35.057
33, -838.09, -964.44, -319.42, -88.16, 0.000, 0.000, 0.000, 23:35:35.058
34, -816.09, -943.21, -317.81, -85.71, 0.000, 0.000, 0.000, 23:35:35.058
37, -823.54, -955.66, -334.51, -111.50, 0.000, 0.000, 0.000, 23:35:35.086
38, -845.53, -977.80, -378.87, -148.49, 0.000, 0.000, 0.000, 23:35:35.086
39, -832.55, -955.91, -333.89, -108.14, 0.000, 0.000, 0.000, 23:35:35.088
40, -818.25, -946.51, -319.69, -96.90, 0.000, 0.000, 0.000, 23:35:35.088
43, -812.03, -938.87, -299.61, -79.12, 0.000, 0.000, 0.000, 23:35:35.117
44, -820.37, -949.72, -333.26, -112.52, 0.000, 0.000, 0.000, 23:35:35.117
45, -832.67, -966.16, -347.12, -126.72, 0.000, 0.000, 0.000, 23:35:35.118
46, -820.78, -951.25, -311.32, -91.27, 0.000, 0.000, 0.000, 23:35:35.118
49, -823.53, -950.66, -302.41, -82.24, 0.000, 0.000, 0.000, 23:35:35.147
50, -806.61, -935.69, -284.38, -75.62, 0.000, 0.000, 0.000, 23:35:35.147
51, -802.59, -934.60, -309.81, -95.94, 0.000, 0.000, 0.000, 23:35:35.148
52, -786.21, -917.45, -301.00, -78.40, 0.000, 0.000, 0.000, 23:35:35.148
55, -789.99, -920.77, -315.10, -81.50, 0.000, 0.000, 0.000, 23:35:35.177
56, -789.55, -914.44, -311.66, -75.86, 0.000, 0.000, 0.000, 23:35:35.177
57, -770.39, -892.72, -297.22, -74.01, 0.000, 0.000, 0.000, 23:35:35.178
58, -777.87, -902.06, -321.48, -93.81, 0.000, 0.000, 0.000, 23:35:35.178
61, -775.09, -898.37, -330.01, -93.40, 0.000, 0.000, 0.000, 23:35:35.207
62, -793.78, -908.22, -331.74, -85.75, 0.000, 0.000, 0.000, 23:35:35.207
63, -818.68, -923.07, -320.40, -81.01, 0.000, 0.000, 0.000, 23:35:35.209
64, -846.18, -950.32, -347.81, -109.56, 0.000, 0.000, 0.000, 23:35:35.209
67, -859.00, -960.06, -348.27, -124.36, 0.000, 0.000, 0.000, 23:35:35.237
68, -875.70, -979.39, -361.32, -123.27, 0.000, 0.000, 0.000, 23:35:35.237
69, -885.61, -990.04, -353.84, -114.93, 0.000, 0.000, 0.000, 23:35:35.238
70, -886.58, -994.67, -352.54, -121.98, 0.000, 0.000, 0.000, 23:35:35.238
73, -875.65, -987.37, -331.28, -111.08, 0.000, 0.000, 0.000, 23:35:35.266
74, -877.03, -994.83, -346.46, -124.51, 0.000, 0.000, 0.000, 23:35:35.267
75, -881.17, -996.13, -351.98, -117.65, 0.000, 0.000, 0.000, 23:35:35.268
76, -886.29, -1010.60, -335.17, -105.11, 0.000, 0.000, 0.000, 23:35:35.268
79, -874.66, -996.75, -308.30, -72.29, 0.000, 0.000, 0.000, 23:35:35.297
80, -867.64, -990.91, -303.67, -76.58, 0.000, 0.000, 0.000, 23:35:35.297
81, -864.71, -994.91, -324.54, -95.06, 0.000, 0.000, 0.000, 23:35:35.298
82, -866.30, -993.81, -317.38, -73.60, 0.000, 0.000, 0.000, 23:35:35.298
85, -887.67, -1012.94, -347.77, -97.04, 0.000, 0.000, 0.000, 23:35:35.326
86, -897.13, -1020.15, -342.84, -93.39, 0.000, 0.000, 0.000, 23:35:35.326
87, -862.04, -984.91, -310.60, -67.70, 0.000, 0.000, 0.000, 23:35:35.328
88, -830.63, -964.63, -303.21, -52.38, 0.000, 0.000, 0.000, 23:35:35.328
91, -818.77, -956.21, -317.70, -55.44, 0.000, 0.000, 0.000, 23:35:35.357
92, -798.51, -941.88, -288.67, -33.33, 0.000, 0.000, 0.000, 23:35:35.357
93, -806.74, -948.78, -283.18, -30.56, 0.000, 0.000, 0.000, 23:35:35.358
94, -806.88, -949.43, -304.29, -51.10, 0.000, 0.000, 0.000, 23:35:35.358
97, -816.92, -957.76, -319.70, -64.50, 0.000, 0.000, 0.000, 23:35:35.387
98, -838.55, -984.37, -357.79, -96.55, 0.000, 0.000, 0.000, 23:35:35.387
99, -821.12, -964.14, -320.48, -65.63, 0.000, 0.000, 0.000, 23:35:35.388
100, -829.30, -969.32, -321.81, -72.42, 0.000, 0.000, 0.000, 23:35:35.389
103, -817.98, -956.07, -291.41, -44.54, 0.000, 0.000, 0.000, 23:35:35.417
104, -812.22, -948.83, -304.81, -67.02, 0.000, 0.000, 0.000, 23:35:35.417
105, -817.81, -953.27, -307.07, -66.36, 0.000, 0.000, 0.000, 23:35:35.418
106, -819.09, -950.50, -292.70, -51.67, 0.000, 0.000, 0.000, 23:35:35.418
109, -826.96, -954.36, -286.21, -36.41, 0.000, 0.000, 0.000, 23:35:35.447
110, -804.80, -938.50, -273.04, -34.34, 0.000, 0.000, 0.000, 23:35:35.447
111, -817.21, -952.84, -318.72, -71.73, 0.000, 0.000, 0.000, 23:35:35.448
112, -826.33, -955.19, -309.33, -59.93, 0.000, 0.000, 0.000, 23:35:35.448
115, -819.07, -949.18, -304.09, -49.28, 0.000, 0.000, 0.000, 23:35:35.476
116, -832.68, -959.33, -305.15, -61.19, 0.000, 0.000, 0.000, 23:35:35.476
117, -824.96, -956.36, -319.27, -66.48, 0.000, 0.000, 0.000, 23:35:35.478
118, -818.26, -947.17, -320.78, -61.76, 0.000, 0.000, 0.000, 23:35:35.478
121, -799.40, -932.53, -328.84, -57.92, 0.000, 0.000, 0.000, 23:35:35.507
122, -797.56, -928.86, -323.76, -43.68, 0.000, 0.000, 0.000, 23:35:35.507
123, -809.11, -935.34, -318.69, -46.73, 0.000, 0.000, 0.000, 23:35:35.508
124, -811.12, -934.27, -342.50, -74.72, 0.000, 0.000, 0.000, 23:35:35.508
127, -797.52, -925.15, -339.91, -78.96, 0.000, 0.000, 0.000, 23:35:35.537
128, -779.64, -911.43, -344.18, -69.59, 0.000, 0.000, 0.000, 23:35:35.537
129, -784.23, -912.97, -320.01, -45.27, 0.000, 0.000, 0.000, 23:35:35.538
130, -801.76, -924.82, -336.51, -73.36, 0.000, 0.000, 0.000, 23:35:35.538
133, -809.68, -938.19, -337.40, -85.37, 0.000, 0.000, 0.000, 23:35:35.567
134, -809.95, -933.19, -352.71, -96.69, 0.000, 0.000, 0.000, 23:35:35.567
135, -807.17, -932.00, -348.16, -87.79, 0.000, 0.000, 0.000, 23:35:35.568
136, -808.08, -931.64, -340.80, -80.14, 0.000, 0.000, 0.000, 23:35:35.568
139, -810.71, -932.58, -320.71, -58.99, 0.000, 0.000, 0.000, 23:35:35.596
140, -801.51, -922.73, -307.23, -58.89, 0.000, 0.000, 0.000, 23:35:35.596
141, -806.92, -929.36, -326.04, -70.76, 0.000, 0.000, 0.000, 23:35:35.598
142, -812.70, -935.27, -335.86, -67.11, 0.000, 0.000, 0.000, 23:35:35.598
145, -808.85, -937.71, -329.58, -50.77, 0.000, 0.000, 0.000, 23:35:35.626
146, -791.52, -922.85, -316.46, -29.47, 0.000, 0.000, 0.000, 23:35:35.626
147, -791.05, -920.82, -343.72, -66.28, 0.000, 0.000, 0.000, 23:35:35.628
148, -805.08, -938.34, -374.92, -88.36, 0.000, 0.000, 0.000, 23:35:35.628
151, -822.82, -957.70, -399.67, -113.42, 0.000, 0.000, 0.000, 23:35:35.657
152, -826.15, -957.19, -374.98, -88.18, 0.000, 0.000, 0.000, 23:35:35.657
153, -808.00, -937.41, -335.27, -51.80, 0.000, 0.000, 0.000, 23:35:35.658
154, -799.47, -930.37, -335.70, -62.96, 0.000, 0.000, 0.000, 23:35:35.658
157, -797.37, -928.52, -347.71, -78.52, 0.000, 0.000, 0.000, 23:35:35.687
158, -790.76, -930.49, -351.13, -70.93, 0.000, 0.000, 0.000, 23:35:35.687
159, -786.69, -921.37, -327.78, -46.41, 0.000, 0.000, 0.000, 23:35:35.688
160, -795.08, -924.49, -328.54, -63.32, 0.000, 0.000, 0.000, 23:35:35.688
163, -788.04, -911.73, -304.19, -47.94, 0.000, 0.000, 0.000, 23:35:35.716
164, -789.24, -910.04, -318.11, -51.26, 0.000, 0.000, 0.000, 23:35:35.716
165, -788.79, -915.09, -321.38, -67.78, 0.000, 0.000, 0.000, 23:35:35.717
166, -783.37, -905.63, -293.07, -32.93, 0.000, 0.000, 0.000, 23:35:35.717
169, -775.56, -897.70, -271.53, -12.94, 0.000, 0.000, 0.000, 23:35:35.747
170, -747.26, -872.19, -246.10, 7.42, 0.000, 0.000, 0.000, 23:35:35.747
171, -760.32, -887.39, -278.61, -23.37, 0.000, 0.000, 0.000, 23:35:35.748
172, -783.62, -905.67, -284.91, -26.76, 0.000, 0.000, 0.000, 23:35:35.748
175, -781.96, -911.07, -292.67, -25.54, 0.000, 0.000, 0.000, 23:35:35.777
176, -784.48, -904.94, -272.85, -17.74, 0.000, 0.000, 0.000, 23:35:35.777
177, -790.57, -908.38, -275.90, -30.35, 0.000, 0.000, 0.000, 23:35:35.778
178, -793.72, -914.59, -287.91, -32.78, 0.000, 0.000, 0.000, 23:35:35.778
181, -765.71, -894.42, -280.43, -20.84, 0.000, 0.000, 0.000, 23:35:35.806
182, -782.74, -901.29, -279.30, -12.99, 0.000, 0.000, 0.000, 23:35:35.806
183, -791.64, -912.34, -280.84, -19.79, 0.000, 0.000, 0.000, 23:35:35.808
184, -787.25, -914.11, -297.66, -39.00, 0.000, 0.000, 0.000, 23:35:35.808
187, -762.73, -896.20, -289.51, -30.94, 0.000, 0.000, 0.000, 23:35:35.837
188, -774.52, -914.36, -332.00, -59.03, 0.000, 0.000, 0.000, 23:35:35.837
189, -785.15, -924.48, -338.24, -62.09, 0.000, 0.000, 0.000, 23:35:35.838
190, -772.93, -912.95, -328.04, -54.23, 0.000, 0.000, 0.000, 23:35:35.838
193, -771.09, -907.94, -314.48, -41.91, 0.000, 0.000, 0.000, 23:35:35.867
194, -774.57, -916.31, -345.24, -68.70, 0.000, 0.000, 0.000, 23:35:35.867
195, -766.65, -911.73, -344.27, -61.42, 0.000, 0.000, 0.000, 23:35:35.868
196, -768.35, -910.28, -328.34, -40.46, 0.000, 0.000, 0.000, 23:35:35.868
199, -781.68, -918.61, -319.82, -25.23, 0.000, 0.000, 0.000, 23:35:35.897
200, -771.04, -908.19, -300.69, -14.95, 0.000, 0.000, 0.000, 23:35:35.897
0, -914.93, -1031.52, -443.11, -285.00, 0.000, 0.000, 0.000, 23:35:35.898
5, -914.27, -1027.85, -426.75, -274.19, 0.000, 0.000, 0.000, 23:35:35.927
6, -895.60, -1015.75, -423.20, -272.46, 0.000, 0.000, 0.000, 23:35:35.927
7, -898.58, -1018.11, -445.50, -285.81, 0.000, 0.000, 0.000, 23:35:35.928
8, -894.20, -1016.24, -433.32, -273.61, 0.000, 0.000, 0.000, 23:35:35.928
11, -895.96, -1015.16, -419.95, -254.18, 0.000, 0.000, 0.000, 23:35:35.962
12, -913.20, -1026.22, -395.02, -247.24, 0.000, 0.000, 0.000, 23:35:35.962
13, -918.58, -1030.02, -398.36, -255.55, 0.000, 0.000, 0.000, 23:35:35.962
14, -913.86, -1024.40, -388.34, -238.24, 0.000, 0.000, 0.000, 23:35:35.962
17, -899.14, -1017.56, -387.07, -240.37, 0.000, 0.000, 0.000, 23:35:35.988
18, -922.32, -1034.97, -382.49, -246.55, 0.000, 0.000, 0.000, 23:35:35.988
19, -924.21, -1034.25, -378.66, -242.80, 0.000, 0.000, 0.000, 23:35:35.988
20, -925.57, -1036.21, -397.68, -256.74, 0.000, 0.000, 0.000, 23:35:35.988
23, -915.65, -1030.94, -394.98, -267.35, 0.000, 0.000, 0.000, 23:35:36.017
24, -928.58, -1036.61, -413.18, -268.99, 0.000, 0.000, 0.000, 23:35:36.017
25, -937.40, -1041.96, -405.04, -269.49, 0.000, 0.000, 0.000, 23:35:36.018
26, -929.99, -1027.16, -400.42, -275.14, 0.000, 0.000, 0.000, 23:35:36.018
29, -914.61, -1016.18, -382.74, -265.68, 0.000, 0.000, 0.000, 23:35:36.047
30, -925.57, -1027.30, -403.48, -275.45, 0.000, 0.000, 0.000, 23:35:36.047
31, -918.58, -1023.68, -386.77, -264.95, 0.000, 0.000, 0.000, 23:35:36.048
32, -931.81, -1035.51, -375.86, -266.09, 0.000, 0.000, 0.000, 23:35:36.048
